Created as New Dataset,Monday, April 03 2023
cm-1,A
4000.00,0.0034
3999.00,0.0034
3998.00,0.0034
3997.00,0.0033
3996.00,0.0033
3995.00,0.0033
3994.00,0.0033
3993.00,0.0033
3992.00,0.0033
3991.00,0.0033
3990.00,0.0032
3989.00,0.0032
3988.00,0.0032
3987.00,0.0032
3986.00,0.0032
3985.00,0.0033
3984.00,0.0033
3983.00,0.0033
3982.00,0.0033
3981.00,0.0032
3980.00,0.0032
3979.00,0.0032
3978.00,0.0032
3977.00,0.0032
3976.00,0.0032
3975.00,0.0031
3974.00,0.0031
3973.00,0.0032
3972.00,0.0032
3971.00,0.0033
3970.00,0.0033
3969.00,0.0033
3968.00,0.0033
3967.00,0.0032
3966.00,0.0032
3965.00,0.0032
3964.00,0.0032
3963.00,0.0033
3962.00,0.0033
3961.00,0.0033
3960.00,0.0032
3959.00,0.0032
3958.00,0.0032
3957.00,0.0032
3956.00,0.0032
3955.00,0.0032
3954.00,0.0031
3953.00,0.0030
3952.00,0.0031
3951.00,0.0031
3950.00,0.0032
3949.00,0.0033
3948.00,0.0034
3947.00,0.0034
3946.00,0.0035
3945.00,0.0034
3944.00,0.0033
3943.00,0.0032
3942.00,0.0031
3941.00,0.0031
3940.00,0.0031
3939.00,0.0031
3938.00,0.0031
3937.00,0.0031
3936.00,0.0031
3935.00,0.0031
3934.00,0.0031
3933.00,0.0031
3932.00,0.0031
3931.00,0.0031
3930.00,0.0032
3929.00,0.0032
3928.00,0.0032
3927.00,0.0032
3926.00,0.0032
3925.00,0.0032
3924.00,0.0033
3923.00,0.0033
3922.00,0.0033
3921.00,0.0033
3920.00,0.0032
3919.00,0.0032
3918.00,0.0032
3917.00,0.0033
3916.00,0.0033
3915.00,0.0033
3914.00,0.0032
3913.00,0.0032
3912.00,0.0031
3911.00,0.0031
3910.00,0.0031
3909.00,0.0031
3908.00,0.0031
3907.00,0.0031
3906.00,0.0031
3905.00,0.0030
3904.00,0.0030
3903.00,0.0032
3902.00,0.0034
3901.00,0.0035
3900.00,0.0035
3899.00,0.0034
3898.00,0.0033
3897.00,0.0032
3896.00,0.0032
3895.00,0.0032
3894.00,0.0032
3893.00,0.0031
3892.00,0.0030
3891.00,0.0029
3890.00,0.0029
3889.00,0.0029
3888.00,0.0030
3887.00,0.0030
3886.00,0.0029
3885.00,0.0028
3884.00,0.0030
3883.00,0.0032
3882.00,0.0032
3881.00,0.0031
3880.00,0.0030
3879.00,0.0030
3878.00,0.0032
3877.00,0.0034
3876.00,0.0034
3875.00,0.0032
3874.00,0.0030
3873.00,0.0030
3872.00,0.0031
3871.00,0.0031
3870.00,0.0031
3869.00,0.0030
3868.00,0.0031
3867.00,0.0032
3866.00,0.0032
3865.00,0.0032
3864.00,0.0032
3863.00,0.0033
3862.00,0.0033
3861.00,0.0033
3860.00,0.0031
3859.00,0.0029
3858.00,0.0028
3857.00,0.0027
3856.00,0.0027
3855.00,0.0026
3854.00,0.0026
3853.00,0.0027
3852.00,0.0029
3851.00,0.0030
3850.00,0.0030
3849.00,0.0030
3848.00,0.0029
3847.00,0.0029
3846.00,0.0030
3845.00,0.0030
3844.00,0.0030
3843.00,0.0030
3842.00,0.0030
3841.00,0.0030
3840.00,0.0031
3839.00,0.0031
3838.00,0.0031
3837.00,0.0031
3836.00,0.0031
3835.00,0.0031
3834.00,0.0032
3833.00,0.0032
3832.00,0.0032
3831.00,0.0032
3830.00,0.0032
3829.00,0.0032
3828.00,0.0032
3827.00,0.0030
3826.00,0.0029
3825.00,0.0029
3824.00,0.0031
3823.00,0.0033
3822.00,0.0033
3821.00,0.0031
3820.00,0.0030
3819.00,0.0031
3818.00,0.0031
3817.00,0.0031
3816.00,0.0030
3815.00,0.0030
3814.00,0.0031
3813.00,0.0031
3812.00,0.0030
3811.00,0.0029
3810.00,0.0028
3809.00,0.0028
3808.00,0.0028
3807.00,0.0028
3806.00,0.0028
3805.00,0.0030
3804.00,0.0033
3803.00,0.0034
3802.00,0.0033
3801.00,0.0032
3800.00,0.0032
3799.00,0.0032
3798.00,0.0032
3797.00,0.0031
3796.00,0.0030
3795.00,0.0030
3794.00,0.0031
3793.00,0.0031
3792.00,0.0031
3791.00,0.0030
3790.00,0.0030
3789.00,0.0031
3788.00,0.0031
3787.00,0.0032
3786.00,0.0032
3785.00,0.0032
3784.00,0.0032
3783.00,0.0033
3782.00,0.0033
3781.00,0.0033
3780.00,0.0032
3779.00,0.0031
3778.00,0.0031
3777.00,0.0031
3776.00,0.0031
3775.00,0.0030
3774.00,0.0029
3773.00,0.0029
3772.00,0.0030
3771.00,0.0029
3770.00,0.0029
3769.00,0.0029
3768.00,0.0030
3767.00,0.0030
3766.00,0.0030
3765.00,0.0030
3764.00,0.0031
3763.00,0.0032
3762.00,0.0033
3761.00,0.0033
3760.00,0.0032
3759.00,0.0031
3758.00,0.0030
3757.00,0.0029
3756.00,0.0028
3755.00,0.0027
3754.00,0.0027
3753.00,0.0025
3752.00,0.0025
3751.00,0.0025
3750.00,0.0026
3749.00,0.0027
3748.00,0.0029
3747.00,0.0032
3746.00,0.0034
3745.00,0.0033
3744.00,0.0030
3743.00,0.0029
3742.00,0.0030
3741.00,0.0030
3740.00,0.0031
3739.00,0.0032
3738.00,0.0033
3737.00,0.0033
3736.00,0.0033
3735.00,0.0033
3734.00,0.0033
3733.00,0.0032
3732.00,0.0031
3731.00,0.0030
3730.00,0.0030
3729.00,0.0030
3728.00,0.0030
3727.00,0.0030
3726.00,0.0030
3725.00,0.0030
3724.00,0.0031
3723.00,0.0031
3722.00,0.0031
3721.00,0.0031
3720.00,0.0032
3719.00,0.0031
3718.00,0.0030
3717.00,0.0029
3716.00,0.0029
3715.00,0.0030
3714.00,0.0031
3713.00,0.0032
3712.00,0.0032
3711.00,0.0033
3710.00,0.0032
3709.00,0.0032
3708.00,0.0031
3707.00,0.0031
3706.00,0.0032
3705.00,0.0033
3704.00,0.0033
3703.00,0.0032
3702.00,0.0030
3701.00,0.0030
3700.00,0.0031
3699.00,0.0031
3698.00,0.0031
3697.00,0.0030
3696.00,0.0030
3695.00,0.0029
3694.00,0.0029
3693.00,0.0029
3692.00,0.0029
3691.00,0.0029
3690.00,0.0031
3689.00,0.0032
3688.00,0.0032
3687.00,0.0032
3686.00,0.0032
3685.00,0.0031
3684.00,0.0030
3683.00,0.0030
3682.00,0.0029
3681.00,0.0028
3680.00,0.0026
3679.00,0.0025
3678.00,0.0025
3677.00,0.0025
3676.00,0.0025
3675.00,0.0025
3674.00,0.0025
3673.00,0.0027
3672.00,0.0028
3671.00,0.0028
3670.00,0.0029
3669.00,0.0030
3668.00,0.0030
3667.00,0.0030
3666.00,0.0029
3665.00,0.0029
3664.00,0.0028
3663.00,0.0028
3662.00,0.0028
3661.00,0.0029
3660.00,0.0030
3659.00,0.0031
3658.00,0.0032
3657.00,0.0031
3656.00,0.0031
3655.00,0.0031
3654.00,0.0033
3653.00,0.0034
3652.00,0.0034
3651.00,0.0033
3650.00,0.0031
3649.00,0.0032
3648.00,0.0033
3647.00,0.0033
3646.00,0.0033
3645.00,0.0033
3644.00,0.0033
3643.00,0.0033
3642.00,0.0033
3641.00,0.0034
3640.00,0.0034
3639.00,0.0034
3638.00,0.0035
3637.00,0.0035
3636.00,0.0035
3635.00,0.0034
3634.00,0.0034
3633.00,0.0034
3632.00,0.0034
3631.00,0.0036
3630.00,0.0036
3629.00,0.0036
3628.00,0.0037
3627.00,0.0038
3626.00,0.0037
3625.00,0.0036
3624.00,0.0035
3623.00,0.0035
3622.00,0.0035
3621.00,0.0037
3620.00,0.0037
3619.00,0.0038
3618.00,0.0038
3617.00,0.0039
3616.00,0.0039
3615.00,0.0039
3614.00,0.0039
3613.00,0.0038
3612.00,0.0038
3611.00,0.0038
3610.00,0.0039
3609.00,0.0040
3608.00,0.0041
3607.00,0.0041
3606.00,0.0040
3605.00,0.0039
3604.00,0.0039
3603.00,0.0039
3602.00,0.0040
3601.00,0.0040
3600.00,0.0041
3599.00,0.0040
3598.00,0.0040
3597.00,0.0040
3596.00,0.0040
3595.00,0.0040
3594.00,0.0039
3593.00,0.0039
3592.00,0.0039
3591.00,0.0039
3590.00,0.0040
3589.00,0.0040
3588.00,0.0040
3587.00,0.0041
3586.00,0.0041
3585.00,0.0041
3584.00,0.0042
3583.00,0.0041
3582.00,0.0041
3581.00,0.0040
3580.00,0.0039
3579.00,0.0039
3578.00,0.0040
3577.00,0.0040
3576.00,0.0041
3575.00,0.0041
3574.00,0.0041
3573.00,0.0041
3572.00,0.0041
3571.00,0.0041
3570.00,0.0041
3569.00,0.0041
3568.00,0.0042
3567.00,0.0043
3566.00,0.0043
3565.00,0.0043
3564.00,0.0043
3563.00,0.0042
3562.00,0.0042
3561.00,0.0042
3560.00,0.0042
3559.00,0.0042
3558.00,0.0043
3557.00,0.0043
3556.00,0.0044
3555.00,0.0044
3554.00,0.0044
3553.00,0.0044
3552.00,0.0045
3551.00,0.0045
3550.00,0.0046
3549.00,0.0046
3548.00,0.0046
3547.00,0.0045
3546.00,0.0046
3545.00,0.0046
3544.00,0.0046
3543.00,0.0046
3542.00,0.0046
3541.00,0.0046
3540.00,0.0045
3539.00,0.0044
3538.00,0.0043
3537.00,0.0042
3536.00,0.0043
3535.00,0.0044
3534.00,0.0045
3533.00,0.0046
3532.00,0.0046
3531.00,0.0046
3530.00,0.0045
3529.00,0.0044
3528.00,0.0044
3527.00,0.0043
3526.00,0.0044
3525.00,0.0046
3524.00,0.0047
3523.00,0.0048
3522.00,0.0048
3521.00,0.0047
3520.00,0.0046
3519.00,0.0044
3518.00,0.0043
3517.00,0.0043
3516.00,0.0043
3515.00,0.0043
3514.00,0.0044
3513.00,0.0045
3512.00,0.0046
3511.00,0.0047
3510.00,0.0047
3509.00,0.0046
3508.00,0.0046
3507.00,0.0046
3506.00,0.0047
3505.00,0.0047
3504.00,0.0047
3503.00,0.0047
3502.00,0.0048
3501.00,0.0048
3500.00,0.0047
3499.00,0.0047
3498.00,0.0048
3497.00,0.0048
3496.00,0.0048
3495.00,0.0047
3494.00,0.0047
3493.00,0.0046
3492.00,0.0046
3491.00,0.0046
3490.00,0.0046
3489.00,0.0045
3488.00,0.0046
3487.00,0.0046
3486.00,0.0046
3485.00,0.0046
3484.00,0.0046
3483.00,0.0047
3482.00,0.0047
3481.00,0.0047
3480.00,0.0047
3479.00,0.0046
3478.00,0.0046
3477.00,0.0046
3476.00,0.0047
3475.00,0.0047
3474.00,0.0047
3473.00,0.0047
3472.00,0.0048
3471.00,0.0049
3470.00,0.0049
3469.00,0.0049
3468.00,0.0049
3467.00,0.0049
3466.00,0.0049
3465.00,0.0050
3464.00,0.0049
3463.00,0.0048
3462.00,0.0047
3461.00,0.0046
3460.00,0.0047
3459.00,0.0048
3458.00,0.0049
3457.00,0.0049
3456.00,0.0048
3455.00,0.0047
3454.00,0.0047
3453.00,0.0047
3452.00,0.0048
3451.00,0.0049
3450.00,0.0049
3449.00,0.0049
3448.00,0.0049
3447.00,0.0049
3446.00,0.0049
3445.00,0.0049
3444.00,0.0049
3443.00,0.0049
3442.00,0.0048
3441.00,0.0048
3440.00,0.0047
3439.00,0.0046
3438.00,0.0046
3437.00,0.0046
3436.00,0.0046
3435.00,0.0046
3434.00,0.0046
3433.00,0.0047
3432.00,0.0047
3431.00,0.0048
3430.00,0.0048
3429.00,0.0048
3428.00,0.0047
3427.00,0.0047
3426.00,0.0048
3425.00,0.0048
3424.00,0.0049
3423.00,0.0050
3422.00,0.0050
3421.00,0.0050
3420.00,0.0049
3419.00,0.0049
3418.00,0.0049
3417.00,0.0049
3416.00,0.0049
3415.00,0.0048
3414.00,0.0048
3413.00,0.0048
3412.00,0.0048
3411.00,0.0049
3410.00,0.0049
3409.00,0.0050
3408.00,0.0050
3407.00,0.0050
3406.00,0.0050
3405.00,0.0050
3404.00,0.0049
3403.00,0.0048
3402.00,0.0048
3401.00,0.0048
3400.00,0.0049
3399.00,0.0049
3398.00,0.0049
3397.00,0.0049
3396.00,0.0048
3395.00,0.0048
3394.00,0.0048
3393.00,0.0048
3392.00,0.0049
3391.00,0.0049
3390.00,0.0050
3389.00,0.0050
3388.00,0.0050
3387.00,0.0049
3386.00,0.0049
3385.00,0.0049
3384.00,0.0049
3383.00,0.0049
3382.00,0.0049
3381.00,0.0049
3380.00,0.0050
3379.00,0.0050
3378.00,0.0050
3377.00,0.0050
3376.00,0.0050
3375.00,0.0050
3374.00,0.0050
3373.00,0.0049
3372.00,0.0049
3371.00,0.0048
3370.00,0.0048
3369.00,0.0049
3368.00,0.0049
3367.00,0.0049
3366.00,0.0049
3365.00,0.0048
3364.00,0.0047
3363.00,0.0047
3362.00,0.0049
3361.00,0.0050
3360.00,0.0051
3359.00,0.0051
3358.00,0.0051
3357.00,0.0050
3356.00,0.0049
3355.00,0.0049
3354.00,0.0049
3353.00,0.0049
3352.00,0.0049
3351.00,0.0049
3350.00,0.0049
3349.00,0.0049
3348.00,0.0049
3347.00,0.0049
3346.00,0.0049
3345.00,0.0049
3344.00,0.0049
3343.00,0.0048
3342.00,0.0048
3341.00,0.0049
3340.00,0.0049
3339.00,0.0050
3338.00,0.0050
3337.00,0.0050
3336.00,0.0050
3335.00,0.0050
3334.00,0.0050
3333.00,0.0049
3332.00,0.0049
3331.00,0.0048
3330.00,0.0048
3329.00,0.0047
3328.00,0.0047
3327.00,0.0048
3326.00,0.0049
3325.00,0.0050
3324.00,0.0050
3323.00,0.0050
3322.00,0.0050
3321.00,0.0049
3320.00,0.0048
3319.00,0.0048
3318.00,0.0049
3317.00,0.0049
3316.00,0.0049
3315.00,0.0048
3314.00,0.0048
3313.00,0.0048
3312.00,0.0048
3311.00,0.0048
3310.00,0.0048
3309.00,0.0048
3308.00,0.0048
3307.00,0.0049
3306.00,0.0049
3305.00,0.0049
3304.00,0.0048
3303.00,0.0048
3302.00,0.0048
3301.00,0.0048
3300.00,0.0048
3299.00,0.0048
3298.00,0.0048
3297.00,0.0048
3296.00,0.0049
3295.00,0.0049
3294.00,0.0049
3293.00,0.0049
3292.00,0.0048
3291.00,0.0048
3290.00,0.0048
3289.00,0.0048
3288.00,0.0049
3287.00,0.0049
3286.00,0.0049
3285.00,0.0049
3284.00,0.0050
3283.00,0.0050
3282.00,0.0049
3281.00,0.0049
3280.00,0.0049
3279.00,0.0049
3278.00,0.0049
3277.00,0.0049
3276.00,0.0049
3275.00,0.0049
3274.00,0.0049
3273.00,0.0049
3272.00,0.0049
3271.00,0.0050
3270.00,0.0050
3269.00,0.0051
3268.00,0.0051
3267.00,0.0050
3266.00,0.0050
3265.00,0.0049
3264.00,0.0048
3263.00,0.0047
3262.00,0.0047
3261.00,0.0047
3260.00,0.0048
3259.00,0.0048
3258.00,0.0048
3257.00,0.0048
3256.00,0.0047
3255.00,0.0047
3254.00,0.0047
3253.00,0.0048
3252.00,0.0048
3251.00,0.0048
3250.00,0.0048
3249.00,0.0048
3248.00,0.0048
3247.00,0.0048
3246.00,0.0048
3245.00,0.0048
3244.00,0.0048
3243.00,0.0048
3242.00,0.0048
3241.00,0.0048
3240.00,0.0048
3239.00,0.0048
3238.00,0.0048
3237.00,0.0049
3236.00,0.0049
3235.00,0.0050
3234.00,0.0050
3233.00,0.0050
3232.00,0.0050
3231.00,0.0050
3230.00,0.0049
3229.00,0.0048
3228.00,0.0048
3227.00,0.0048
3226.00,0.0048
3225.00,0.0048
3224.00,0.0048
3223.00,0.0048
3222.00,0.0048
3221.00,0.0048
3220.00,0.0047
3219.00,0.0047
3218.00,0.0047
3217.00,0.0047
3216.00,0.0048
3215.00,0.0049
3214.00,0.0049
3213.00,0.0048
3212.00,0.0047
3211.00,0.0046
3210.00,0.0046
3209.00,0.0046
3208.00,0.0047
3207.00,0.0047
3206.00,0.0047
3205.00,0.0048
3204.00,0.0048
3203.00,0.0048
3202.00,0.0048
3201.00,0.0048
3200.00,0.0048
3199.00,0.0048
3198.00,0.0047
3197.00,0.0047
3196.00,0.0047
3195.00,0.0047
3194.00,0.0047
3193.00,0.0047
3192.00,0.0046
3191.00,0.0046
3190.00,0.0046
3189.00,0.0045
3188.00,0.0045
3187.00,0.0045
3186.00,0.0045
3185.00,0.0045
3184.00,0.0046
3183.00,0.0047
3182.00,0.0047
3181.00,0.0047
3180.00,0.0047
3179.00,0.0046
3178.00,0.0045
3177.00,0.0044
3176.00,0.0043
3175.00,0.0044
3174.00,0.0044
3173.00,0.0045
3172.00,0.0045
3171.00,0.0045
3170.00,0.0045
3169.00,0.0044
3168.00,0.0044
3167.00,0.0044
3166.00,0.0045
3165.00,0.0046
3164.00,0.0047
3163.00,0.0047
3162.00,0.0046
3161.00,0.0045
3160.00,0.0044
3159.00,0.0043
3158.00,0.0042
3157.00,0.0042
3156.00,0.0043
3155.00,0.0043
3154.00,0.0044
3153.00,0.0045
3152.00,0.0046
3151.00,0.0045
3150.00,0.0045
3149.00,0.0044
3148.00,0.0044
3147.00,0.0044
3146.00,0.0044
3145.00,0.0044
3144.00,0.0044
3143.00,0.0044
3142.00,0.0044
3141.00,0.0043
3140.00,0.0043
3139.00,0.0043
3138.00,0.0044
3137.00,0.0045
3136.00,0.0045
3135.00,0.0045
3134.00,0.0045
3133.00,0.0044
3132.00,0.0044
3131.00,0.0044
3130.00,0.0044
3129.00,0.0044
3128.00,0.0044
3127.00,0.0044
3126.00,0.0044
3125.00,0.0044
3124.00,0.0044
3123.00,0.0044
3122.00,0.0044
3121.00,0.0043
3120.00,0.0043
3119.00,0.0043
3118.00,0.0043
3117.00,0.0043
3116.00,0.0043
3115.00,0.0043
3114.00,0.0043
3113.00,0.0043
3112.00,0.0043
3111.00,0.0043
3110.00,0.0042
3109.00,0.0042
3108.00,0.0042
3107.00,0.0042
3106.00,0.0043
3105.00,0.0043
3104.00,0.0043
3103.00,0.0043
3102.00,0.0043
3101.00,0.0042
3100.00,0.0042
3099.00,0.0041
3098.00,0.0041
3097.00,0.0041
3096.00,0.0041
3095.00,0.0042
3094.00,0.0043
3093.00,0.0044
3092.00,0.0044
3091.00,0.0044
3090.00,0.0043
3089.00,0.0042
3088.00,0.0041
3087.00,0.0041
3086.00,0.0042
3085.00,0.0042
3084.00,0.0043
3083.00,0.0043
3082.00,0.0043
3081.00,0.0042
3080.00,0.0042
3079.00,0.0042
3078.00,0.0042
3077.00,0.0042
3076.00,0.0042
3075.00,0.0042
3074.00,0.0043
3073.00,0.0043
3072.00,0.0043
3071.00,0.0043
3070.00,0.0043
3069.00,0.0043
3068.00,0.0043
3067.00,0.0043
3066.00,0.0042
3065.00,0.0042
3064.00,0.0041
3063.00,0.0040
3062.00,0.0040
3061.00,0.0041
3060.00,0.0041
3059.00,0.0041
3058.00,0.0041
3057.00,0.0042
3056.00,0.0042
3055.00,0.0042
3054.00,0.0042
3053.00,0.0041
3052.00,0.0041
3051.00,0.0041
3050.00,0.0042
3049.00,0.0042
3048.00,0.0043
3047.00,0.0043
3046.00,0.0043
3045.00,0.0042
3044.00,0.0042
3043.00,0.0041
3042.00,0.0040
3041.00,0.0039
3040.00,0.0039
3039.00,0.0039
3038.00,0.0040
3037.00,0.0040
3036.00,0.0040
3035.00,0.0041
3034.00,0.0041
3033.00,0.0041
3032.00,0.0041
3031.00,0.0040
3030.00,0.0040
3029.00,0.0039
3028.00,0.0039
3027.00,0.0039
3026.00,0.0039
3025.00,0.0040
3024.00,0.0040
3023.00,0.0040
3022.00,0.0040
3021.00,0.0039
3020.00,0.0039
3019.00,0.0038
3018.00,0.0037
3017.00,0.0037
3016.00,0.0037
3015.00,0.0037
3014.00,0.0036
3013.00,0.0035
3012.00,0.0034
3011.00,0.0034
3010.00,0.0033
3009.00,0.0032
3008.00,0.0030
3007.00,0.0029
3006.00,0.0028
3005.00,0.0027
3004.00,0.0025
3003.00,0.0024
3002.00,0.0023
3001.00,0.0022
3000.00,0.0021
2999.00,0.0020
2998.00,0.0019
2997.00,0.0017
2996.00,0.0016
2995.00,0.0016
2994.00,0.0016
2993.00,0.0015
2992.00,0.0014
2991.00,0.0013
2990.00,0.0012
2989.00,0.0011
2988.00,0.0010
2987.00,0.0009
2986.00,0.0007
2985.00,0.0003
2984.00,-0.0000
2983.00,-0.0003
2982.00,-0.0005
2981.00,-0.0005
2980.00,-0.0004
2979.00,-0.0002
2978.00,-0.0000
2977.00,0.0002
2976.00,0.0004
2975.00,0.0004
2974.00,0.0004
2973.00,0.0003
2972.00,0.0003
2971.00,0.0004
2970.00,0.0005
2969.00,0.0007
2968.00,0.0009
2967.00,0.0010
2966.00,0.0010
2965.00,0.0010
2964.00,0.0011
2963.00,0.0012
2962.00,0.0014
2961.00,0.0015
2960.00,0.0015
2959.00,0.0015
2958.00,0.0015
2957.00,0.0015
2956.00,0.0017
2955.00,0.0018
2954.00,0.0019
2953.00,0.0020
2952.00,0.0021
2951.00,0.0021
2950.00,0.0022
2949.00,0.0023
2948.00,0.0023
2947.00,0.0023
2946.00,0.0024
2945.00,0.0024
2944.00,0.0025
2943.00,0.0026
2942.00,0.0027
2941.00,0.0028
2940.00,0.0028
2939.00,0.0027
2938.00,0.0027
2937.00,0.0027
2936.00,0.0027
2935.00,0.0027
2934.00,0.0027
2933.00,0.0027
2932.00,0.0027
2931.00,0.0027
2930.00,0.0027
2929.00,0.0028
2928.00,0.0028
2927.00,0.0028
2926.00,0.0028
2925.00,0.0028
2924.00,0.0027
2923.00,0.0027
2922.00,0.0026
2921.00,0.0025
2920.00,0.0023
2919.00,0.0022
2918.00,0.0021
2917.00,0.0021
2916.00,0.0020
2915.00,0.0021
2914.00,0.0021
2913.00,0.0022
2912.00,0.0023
2911.00,0.0023
2910.00,0.0024
2909.00,0.0024
2908.00,0.0024
2907.00,0.0024
2906.00,0.0023
2905.00,0.0023
2904.00,0.0023
2903.00,0.0023
2902.00,0.0023
2901.00,0.0023
2900.00,0.0023
2899.00,0.0023
2898.00,0.0022
2897.00,0.0022
2896.00,0.0022
2895.00,0.0022
2894.00,0.0021
2893.00,0.0021
2892.00,0.0021
2891.00,0.0022
2890.00,0.0022
2889.00,0.0022
2888.00,0.0022
2887.00,0.0022
2886.00,0.0021
2885.00,0.0020
2884.00,0.0020
2883.00,0.0020
2882.00,0.0020
2881.00,0.0021
2880.00,0.0022
2879.00,0.0022
2878.00,0.0023
2877.00,0.0024
2876.00,0.0024
2875.00,0.0024
2874.00,0.0024
2873.00,0.0024
2872.00,0.0024
2871.00,0.0024
2870.00,0.0024
2869.00,0.0024
2868.00,0.0025
2867.00,0.0025
2866.00,0.0025
2865.00,0.0026
2864.00,0.0026
2863.00,0.0027
2862.00,0.0027
2861.00,0.0027
2860.00,0.0028
2859.00,0.0029
2858.00,0.0030
2857.00,0.0030
2856.00,0.0030
2855.00,0.0030
2854.00,0.0029
2853.00,0.0029
2852.00,0.0029
2851.00,0.0029
2850.00,0.0029
2849.00,0.0029
2848.00,0.0029
2847.00,0.0029
2846.00,0.0029
2845.00,0.0029
2844.00,0.0029
2843.00,0.0029
2842.00,0.0029
2841.00,0.0029
2840.00,0.0028
2839.00,0.0028
2838.00,0.0028
2837.00,0.0028
2836.00,0.0029
2835.00,0.0030
2834.00,0.0031
2833.00,0.0030
2832.00,0.0030
2831.00,0.0029
2830.00,0.0029
2829.00,0.0029
2828.00,0.0030
2827.00,0.0030
2826.00,0.0030
2825.00,0.0030
2824.00,0.0030
2823.00,0.0030
2822.00,0.0030
2821.00,0.0029
2820.00,0.0029
2819.00,0.0028
2818.00,0.0028
2817.00,0.0028
2816.00,0.0028
2815.00,0.0028
2814.00,0.0027
2813.00,0.0027
2812.00,0.0027
2811.00,0.0027
2810.00,0.0027
2809.00,0.0028
2808.00,0.0028
2807.00,0.0028
2806.00,0.0028
2805.00,0.0029
2804.00,0.0029
2803.00,0.0029
2802.00,0.0029
2801.00,0.0028
2800.00,0.0028
2799.00,0.0029
2798.00,0.0029
2797.00,0.0029
2796.00,0.0029
2795.00,0.0029
2794.00,0.0029
2793.00,0.0029
2792.00,0.0029
2791.00,0.0029
2790.00,0.0029
2789.00,0.0029
2788.00,0.0029
2787.00,0.0029
2786.00,0.0028
2785.00,0.0028
2784.00,0.0028
2783.00,0.0028
2782.00,0.0027
2781.00,0.0026
2780.00,0.0026
2779.00,0.0026
2778.00,0.0026
2777.00,0.0027
2776.00,0.0027
2775.00,0.0028
2774.00,0.0028
2773.00,0.0028
2772.00,0.0027
2771.00,0.0027
2770.00,0.0026
2769.00,0.0025
2768.00,0.0025
2767.00,0.0025
2766.00,0.0025
2765.00,0.0026
2764.00,0.0026
2763.00,0.0026
2762.00,0.0026
2761.00,0.0026
2760.00,0.0026
2759.00,0.0026
2758.00,0.0026
2757.00,0.0026
2756.00,0.0026
2755.00,0.0026
2754.00,0.0026
2753.00,0.0026
2752.00,0.0026
2751.00,0.0027
2750.00,0.0027
2749.00,0.0027
2748.00,0.0027
2747.00,0.0027
2746.00,0.0027
2745.00,0.0027
2744.00,0.0027
2743.00,0.0027
2742.00,0.0027
2741.00,0.0027
2740.00,0.0027
2739.00,0.0026
2738.00,0.0026
2737.00,0.0025
2736.00,0.0025
2735.00,0.0025
2734.00,0.0026
2733.00,0.0026
2732.00,0.0027
2731.00,0.0026
2730.00,0.0026
2729.00,0.0025
2728.00,0.0025
2727.00,0.0025
2726.00,0.0026
2725.00,0.0026
2724.00,0.0026
2723.00,0.0026
2722.00,0.0025
2721.00,0.0025
2720.00,0.0025
2719.00,0.0025
2718.00,0.0025
2717.00,0.0026
2716.00,0.0026
2715.00,0.0026
2714.00,0.0026
2713.00,0.0026
2712.00,0.0026
2711.00,0.0026
2710.00,0.0025
2709.00,0.0025
2708.00,0.0025
2707.00,0.0025
2706.00,0.0025
2705.00,0.0025
2704.00,0.0025
2703.00,0.0025
2702.00,0.0024
2701.00,0.0024
2700.00,0.0024
2699.00,0.0025
2698.00,0.0025
2697.00,0.0025
2696.00,0.0025
2695.00,0.0025
2694.00,0.0025
2693.00,0.0026
2692.00,0.0026
2691.00,0.0026
2690.00,0.0026
2689.00,0.0025
2688.00,0.0025
2687.00,0.0025
2686.00,0.0025
2685.00,0.0025
2684.00,0.0025
2683.00,0.0025
2682.00,0.0025
2681.00,0.0025
2680.00,0.0024
2679.00,0.0024
2678.00,0.0024
2677.00,0.0023
2676.00,0.0023
2675.00,0.0023
2674.00,0.0023
2673.00,0.0023
2672.00,0.0023
2671.00,0.0023
2670.00,0.0023
2669.00,0.0023
2668.00,0.0023
2667.00,0.0023
2666.00,0.0024
2665.00,0.0024
2664.00,0.0024
2663.00,0.0025
2662.00,0.0025
2661.00,0.0025
2660.00,0.0025
2659.00,0.0025
2658.00,0.0025
2657.00,0.0026
2656.00,0.0025
2655.00,0.0025
2654.00,0.0025
2653.00,0.0025
2652.00,0.0025
2651.00,0.0025
2650.00,0.0025
2649.00,0.0025
2648.00,0.0025
2647.00,0.0024
2646.00,0.0024
2645.00,0.0024
2644.00,0.0025
2643.00,0.0025
2642.00,0.0025
2641.00,0.0025
2640.00,0.0025
2639.00,0.0025
2638.00,0.0025
2637.00,0.0025
2636.00,0.0024
2635.00,0.0024
2634.00,0.0024
2633.00,0.0025
2632.00,0.0025
2631.00,0.0025
2630.00,0.0024
2629.00,0.0023
2628.00,0.0022
2627.00,0.0022
2626.00,0.0022
2625.00,0.0023
2624.00,0.0023
2623.00,0.0024
2622.00,0.0024
2621.00,0.0025
2620.00,0.0025
2619.00,0.0025
2618.00,0.0025
2617.00,0.0025
2616.00,0.0025
2615.00,0.0024
2614.00,0.0024
2613.00,0.0024
2612.00,0.0024
2611.00,0.0025
2610.00,0.0025
2609.00,0.0024
2608.00,0.0023
2607.00,0.0023
2606.00,0.0024
2605.00,0.0024
2604.00,0.0025
2603.00,0.0025
2602.00,0.0025
2601.00,0.0025
2600.00,0.0024
2599.00,0.0024
2598.00,0.0024
2597.00,0.0024
2596.00,0.0023
2595.00,0.0023
2594.00,0.0023
2593.00,0.0023
2592.00,0.0024
2591.00,0.0024
2590.00,0.0024
2589.00,0.0024
2588.00,0.0024
2587.00,0.0024
2586.00,0.0023
2585.00,0.0022
2584.00,0.0022
2583.00,0.0022
2582.00,0.0022
2581.00,0.0023
2580.00,0.0023
2579.00,0.0024
2578.00,0.0023
2577.00,0.0023
2576.00,0.0022
2575.00,0.0022
2574.00,0.0023
2573.00,0.0023
2572.00,0.0023
2571.00,0.0023
2570.00,0.0022
2569.00,0.0021
2568.00,0.0022
2567.00,0.0023
2566.00,0.0024
2565.00,0.0025
2564.00,0.0024
2563.00,0.0024
2562.00,0.0025
2561.00,0.0025
2560.00,0.0025
2559.00,0.0025
2558.00,0.0024
2557.00,0.0024
2556.00,0.0025
2555.00,0.0025
2554.00,0.0025
2553.00,0.0024
2552.00,0.0023
2551.00,0.0022
2550.00,0.0021
2549.00,0.0020
2548.00,0.0020
2547.00,0.0019
2546.00,0.0019
2545.00,0.0020
2544.00,0.0020
2543.00,0.0021
2542.00,0.0021
2541.00,0.0020
2540.00,0.0019
2539.00,0.0018
2538.00,0.0018
2537.00,0.0017
2536.00,0.0017
2535.00,0.0018
2534.00,0.0019
2533.00,0.0020
2532.00,0.0021
2531.00,0.0021
2530.00,0.0020
2529.00,0.0019
2528.00,0.0019
2527.00,0.0019
2526.00,0.0018
2525.00,0.0018
2524.00,0.0017
2523.00,0.0017
2522.00,0.0018
2521.00,0.0018
2520.00,0.0019
2519.00,0.0020
2518.00,0.0021
2517.00,0.0022
2516.00,0.0022
2515.00,0.0021
2514.00,0.0020
2513.00,0.0019
2512.00,0.0019
2511.00,0.0019
2510.00,0.0020
2509.00,0.0021
2508.00,0.0021
2507.00,0.0021
2506.00,0.0021
2505.00,0.0021
2504.00,0.0020
2503.00,0.0020
2502.00,0.0021
2501.00,0.0021
2500.00,0.0022
2499.00,0.0023
2498.00,0.0022
2497.00,0.0022
2496.00,0.0022
2495.00,0.0022
2494.00,0.0022
2493.00,0.0023
2492.00,0.0023
2491.00,0.0023
2490.00,0.0023
2489.00,0.0022
2488.00,0.0022
2487.00,0.0021
2486.00,0.0021
2485.00,0.0020
2484.00,0.0019
2483.00,0.0019
2482.00,0.0020
2481.00,0.0021
2480.00,0.0021
2479.00,0.0021
2478.00,0.0021
2477.00,0.0021
2476.00,0.0020
2475.00,0.0020
2474.00,0.0020
2473.00,0.0021
2472.00,0.0021
2471.00,0.0021
2470.00,0.0021
2469.00,0.0021
2468.00,0.0020
2467.00,0.0020
2466.00,0.0019
2465.00,0.0019
2464.00,0.0019
2463.00,0.0019
2462.00,0.0019
2461.00,0.0019
2460.00,0.0020
2459.00,0.0020
2458.00,0.0021
2457.00,0.0021
2456.00,0.0021
2455.00,0.0021
2454.00,0.0021
2453.00,0.0022
2452.00,0.0023
2451.00,0.0023
2450.00,0.0022
2449.00,0.0021
2448.00,0.0020
2447.00,0.0020
2446.00,0.0020
2445.00,0.0020
2444.00,0.0020
2443.00,0.0020
2442.00,0.0019
2441.00,0.0019
2440.00,0.0019
2439.00,0.0019
2438.00,0.0019
2437.00,0.0019
2436.00,0.0019
2435.00,0.0019
2434.00,0.0019
2433.00,0.0019
2432.00,0.0019
2431.00,0.0019
2430.00,0.0019
2429.00,0.0019
2428.00,0.0019
2427.00,0.0019
2426.00,0.0019
2425.00,0.0019
2424.00,0.0019
2423.00,0.0019
2422.00,0.0019
2421.00,0.0019
2420.00,0.0019
2419.00,0.0019
2418.00,0.0019
2417.00,0.0019
2416.00,0.0018
2415.00,0.0018
2414.00,0.0018
2413.00,0.0018
2412.00,0.0019
2411.00,0.0019
2410.00,0.0020
2409.00,0.0020
2408.00,0.0019
2407.00,0.0019
2406.00,0.0018
2405.00,0.0018
2404.00,0.0018
2403.00,0.0018
2402.00,0.0018
2401.00,0.0017
2400.00,0.0017
2399.00,0.0018
2398.00,0.0018
2397.00,0.0018
2396.00,0.0018
2395.00,0.0017
2394.00,0.0017
2393.00,0.0017
2392.00,0.0017
2391.00,0.0016
2390.00,0.0016
2389.00,0.0016
2388.00,0.0017
2387.00,0.0017
2386.00,0.0017
2385.00,0.0017
2384.00,0.0017
2383.00,0.0016
2382.00,0.0016
2381.00,0.0017
2380.00,0.0018
2379.00,0.0019
2378.00,0.0019
2377.00,0.0019
2376.00,0.0018
2375.00,0.0018
2374.00,0.0018
2373.00,0.0018
2372.00,0.0017
2371.00,0.0016
2370.00,0.0014
2369.00,0.0011
2368.00,0.0009
2367.00,0.0009
2366.00,0.0012
2365.00,0.0014
2364.00,0.0015
2363.00,0.0015
2362.00,0.0015
2361.00,0.0016
2360.00,0.0017
2359.00,0.0017
2358.00,0.0017
2357.00,0.0016
2356.00,0.0015
2355.00,0.0014
2354.00,0.0014
2353.00,0.0014
2352.00,0.0014
2351.00,0.0015
2350.00,0.0015
2349.00,0.0015
2348.00,0.0015
2347.00,0.0015
2346.00,0.0013
2345.00,0.0013
2344.00,0.0014
2343.00,0.0015
2342.00,0.0018
2341.00,0.0019
2340.00,0.0019
2339.00,0.0018
2338.00,0.0015
2337.00,0.0013
2336.00,0.0012
2335.00,0.0013
2334.00,0.0015
2333.00,0.0016
2332.00,0.0016
2331.00,0.0016
2330.00,0.0015
2329.00,0.0014
2328.00,0.0015
2327.00,0.0016
2326.00,0.0017
2325.00,0.0017
2324.00,0.0016
2323.00,0.0015
2322.00,0.0015
2321.00,0.0015
2320.00,0.0015
2319.00,0.0014
2318.00,0.0013
2317.00,0.0013
2316.00,0.0014
2315.00,0.0015
2314.00,0.0015
2313.00,0.0015
2312.00,0.0015
2311.00,0.0015
2310.00,0.0016
2309.00,0.0017
2308.00,0.0017
2307.00,0.0017
2306.00,0.0016
2305.00,0.0016
2304.00,0.0015
2303.00,0.0014
2302.00,0.0014
2301.00,0.0014
2300.00,0.0014
2299.00,0.0015
2298.00,0.0016
2297.00,0.0015
2296.00,0.0015
2295.00,0.0014
2294.00,0.0015
2293.00,0.0017
2292.00,0.0019
2291.00,0.0020
2290.00,0.0019
2289.00,0.0018
2288.00,0.0018
2287.00,0.0018
2286.00,0.0019
2285.00,0.0020
2284.00,0.0021
2283.00,0.0022
2282.00,0.0022
2281.00,0.0022
2280.00,0.0021
2279.00,0.0021
2278.00,0.0021
2277.00,0.0021
2276.00,0.0021
2275.00,0.0019
2274.00,0.0018
2273.00,0.0017
2272.00,0.0016
2271.00,0.0016
2270.00,0.0017
2269.00,0.0017
2268.00,0.0018
2267.00,0.0018
2266.00,0.0018
2265.00,0.0019
2264.00,0.0020
2263.00,0.0020
2262.00,0.0019
2261.00,0.0019
2260.00,0.0019
2259.00,0.0019
2258.00,0.0018
2257.00,0.0016
2256.00,0.0015
2255.00,0.0015
2254.00,0.0016
2253.00,0.0016
2252.00,0.0017
2251.00,0.0017
2250.00,0.0017
2249.00,0.0016
2248.00,0.0016
2247.00,0.0016
2246.00,0.0017
2245.00,0.0018
2244.00,0.0019
2243.00,0.0018
2242.00,0.0017
2241.00,0.0016
2240.00,0.0015
2239.00,0.0015
2238.00,0.0015
2237.00,0.0015
2236.00,0.0015
2235.00,0.0015
2234.00,0.0016
2233.00,0.0017
2232.00,0.0017
2231.00,0.0016
2230.00,0.0015
2229.00,0.0014
2228.00,0.0014
2227.00,0.0015
2226.00,0.0016
2225.00,0.0016
2224.00,0.0016
2223.00,0.0015
2222.00,0.0014
2221.00,0.0013
2220.00,0.0012
2219.00,0.0012
2218.00,0.0013
2217.00,0.0014
2216.00,0.0015
2215.00,0.0017
2214.00,0.0018
2213.00,0.0018
2212.00,0.0017
2211.00,0.0015
2210.00,0.0015
2209.00,0.0016
2208.00,0.0016
2207.00,0.0017
2206.00,0.0016
2205.00,0.0016
2204.00,0.0015
2203.00,0.0015
2202.00,0.0015
2201.00,0.0014
2200.00,0.0013
2199.00,0.0012
2198.00,0.0013
2197.00,0.0014
2196.00,0.0014
2195.00,0.0014
2194.00,0.0013
2193.00,0.0012
2192.00,0.0011
2191.00,0.0010
2190.00,0.0009
2189.00,0.0009
2188.00,0.0009
2187.00,0.0012
2186.00,0.0015
2185.00,0.0017
2184.00,0.0015
2183.00,0.0012
2182.00,0.0011
2181.00,0.0011
2180.00,0.0012
2179.00,0.0014
2178.00,0.0016
2177.00,0.0017
2176.00,0.0018
2175.00,0.0017
2174.00,0.0016
2173.00,0.0014
2172.00,0.0013
2171.00,0.0014
2170.00,0.0016
2169.00,0.0019
2168.00,0.0020
2167.00,0.0021
2166.00,0.0021
2165.00,0.0022
2164.00,0.0025
2163.00,0.0028
2162.00,0.0030
2161.00,0.0028
2160.00,0.0021
2159.00,0.0013
2158.00,0.0006
2157.00,0.0004
2156.00,0.0004
2155.00,0.0006
2154.00,0.0008
2153.00,0.0011
2152.00,0.0012
2151.00,0.0010
2150.00,0.0006
2149.00,0.0003
2148.00,0.0003
2147.00,0.0005
2146.00,0.0008
2145.00,0.0011
2144.00,0.0012
2143.00,0.0013
2142.00,0.0014
2141.00,0.0015
2140.00,0.0015
2139.00,0.0014
2138.00,0.0012
2137.00,0.0010
2136.00,0.0009
2135.00,0.0008
2134.00,0.0009
2133.00,0.0010
2132.00,0.0010
2131.00,0.0010
2130.00,0.0010
2129.00,0.0011
2128.00,0.0013
2127.00,0.0014
2126.00,0.0014
2125.00,0.0013
2124.00,0.0013
2123.00,0.0013
2122.00,0.0013
2121.00,0.0013
2120.00,0.0012
2119.00,0.0012
2118.00,0.0011
2117.00,0.0011
2116.00,0.0011
2115.00,0.0011
2114.00,0.0009
2113.00,0.0008
2112.00,0.0008
2111.00,0.0009
2110.00,0.0012
2109.00,0.0014
2108.00,0.0016
2107.00,0.0017
2106.00,0.0017
2105.00,0.0017
2104.00,0.0016
2103.00,0.0016
2102.00,0.0016
2101.00,0.0015
2100.00,0.0014
2099.00,0.0012
2098.00,0.0010
2097.00,0.0008
2096.00,0.0008
2095.00,0.0009
2094.00,0.0011
2093.00,0.0012
2092.00,0.0013
2091.00,0.0012
2090.00,0.0011
2089.00,0.0011
2088.00,0.0011
2087.00,0.0011
2086.00,0.0012
2085.00,0.0014
2084.00,0.0015
2083.00,0.0016
2082.00,0.0016
2081.00,0.0015
2080.00,0.0014
2079.00,0.0014
2078.00,0.0013
2077.00,0.0013
2076.00,0.0014
2075.00,0.0014
2074.00,0.0015
2073.00,0.0015
2072.00,0.0015
2071.00,0.0015
2070.00,0.0014
2069.00,0.0013
2068.00,0.0012
2067.00,0.0011
2066.00,0.0012
2065.00,0.0013
2064.00,0.0013
2063.00,0.0013
2062.00,0.0014
2061.00,0.0015
2060.00,0.0014
2059.00,0.0013
2058.00,0.0012
2057.00,0.0012
2056.00,0.0012
2055.00,0.0013
2054.00,0.0014
2053.00,0.0016
2052.00,0.0018
2051.00,0.0017
2050.00,0.0014
2049.00,0.0012
2048.00,0.0011
2047.00,0.0012
2046.00,0.0015
2045.00,0.0018
2044.00,0.0019
2043.00,0.0019
2042.00,0.0018
2041.00,0.0016
2040.00,0.0014
2039.00,0.0013
2038.00,0.0015
2037.00,0.0018
2036.00,0.0021
2035.00,0.0021
2034.00,0.0020
2033.00,0.0020
2032.00,0.0022
2031.00,0.0023
2030.00,0.0022
2029.00,0.0019
2028.00,0.0016
2027.00,0.0014
2026.00,0.0013
2025.00,0.0013
2024.00,0.0011
2023.00,0.0009
2022.00,0.0008
2021.00,0.0007
2020.00,0.0006
2019.00,0.0005
2018.00,0.0004
2017.00,0.0003
2016.00,0.0004
2015.00,0.0006
2014.00,0.0008
2013.00,0.0010
2012.00,0.0011
2011.00,0.0012
2010.00,0.0012
2009.00,0.0012
2008.00,0.0011
2007.00,0.0009
2006.00,0.0007
2005.00,0.0007
2004.00,0.0009
2003.00,0.0012
2002.00,0.0016
2001.00,0.0018
2000.00,0.0018
1999.00,0.0016
1998.00,0.0014
1997.00,0.0014
1996.00,0.0016
1995.00,0.0018
1994.00,0.0019
1993.00,0.0021
1992.00,0.0020
1991.00,0.0019
1990.00,0.0017
1989.00,0.0015
1988.00,0.0014
1987.00,0.0014
1986.00,0.0014
1985.00,0.0014
1984.00,0.0014
1983.00,0.0013
1982.00,0.0013
1981.00,0.0012
1980.00,0.0010
1979.00,0.0007
1978.00,0.0003
1977.00,0.0001
1976.00,0.0001
1975.00,0.0005
1974.00,0.0009
1973.00,0.0011
1972.00,0.0011
1971.00,0.0009
1970.00,0.0010
1969.00,0.0012
1968.00,0.0014
1967.00,0.0012
1966.00,0.0010
1965.00,0.0007
1964.00,0.0008
1963.00,0.0009
1962.00,0.0010
1961.00,0.0011
1960.00,0.0011
1959.00,0.0011
1958.00,0.0011
1957.00,0.0011
1956.00,0.0010
1955.00,0.0009
1954.00,0.0010
1953.00,0.0012
1952.00,0.0012
1951.00,0.0010
1950.00,0.0008
1949.00,0.0006
1948.00,0.0006
1947.00,0.0007
1946.00,0.0009
1945.00,0.0009
1944.00,0.0008
1943.00,0.0007
1942.00,0.0007
1941.00,0.0006
1940.00,0.0006
1939.00,0.0005
1938.00,0.0004
1937.00,0.0005
1936.00,0.0005
1935.00,0.0005
1934.00,0.0004
1933.00,0.0003
1932.00,0.0003
1931.00,0.0005
1930.00,0.0007
1929.00,0.0010
1928.00,0.0012
1927.00,0.0013
1926.00,0.0013
1925.00,0.0012
1924.00,0.0011
1923.00,0.0011
1922.00,0.0010
1921.00,0.0010
1920.00,0.0010
1919.00,0.0009
1918.00,0.0008
1917.00,0.0008
1916.00,0.0008
1915.00,0.0008
1914.00,0.0009
1913.00,0.0009
1912.00,0.0009
1911.00,0.0009
1910.00,0.0008
1909.00,0.0008
1908.00,0.0007
1907.00,0.0007
1906.00,0.0008
1905.00,0.0008
1904.00,0.0009
1903.00,0.0009
1902.00,0.0009
1901.00,0.0009
1900.00,0.0009
1899.00,0.0009
1898.00,0.0010
1897.00,0.0009
1896.00,0.0008
1895.00,0.0007
1894.00,0.0007
1893.00,0.0007
1892.00,0.0008
1891.00,0.0008
1890.00,0.0008
1889.00,0.0008
1888.00,0.0007
1887.00,0.0007
1886.00,0.0006
1885.00,0.0007
1884.00,0.0007
1883.00,0.0008
1882.00,0.0008
1881.00,0.0008
1880.00,0.0008
1879.00,0.0007
1878.00,0.0007
1877.00,0.0006
1876.00,0.0006
1875.00,0.0007
1874.00,0.0008
1873.00,0.0009
1872.00,0.0009
1871.00,0.0009
1870.00,0.0009
1869.00,0.0009
1868.00,0.0008
1867.00,0.0008
1866.00,0.0009
1865.00,0.0009
1864.00,0.0008
1863.00,0.0007
1862.00,0.0006
1861.00,0.0006
1860.00,0.0005
1859.00,0.0005
1858.00,0.0006
1857.00,0.0006
1856.00,0.0007
1855.00,0.0007
1854.00,0.0007
1853.00,0.0007
1852.00,0.0006
1851.00,0.0007
1850.00,0.0007
1849.00,0.0008
1848.00,0.0007
1847.00,0.0007
1846.00,0.0008
1845.00,0.0008
1844.00,0.0008
1843.00,0.0008
1842.00,0.0008
1841.00,0.0007
1840.00,0.0007
1839.00,0.0007
1838.00,0.0007
1837.00,0.0007
1836.00,0.0007
1835.00,0.0008
1834.00,0.0008
1833.00,0.0008
1832.00,0.0009
1831.00,0.0010
1830.00,0.0010
1829.00,0.0010
1828.00,0.0009
1827.00,0.0010
1826.00,0.0010
1825.00,0.0010
1824.00,0.0009
1823.00,0.0008
1822.00,0.0008
1821.00,0.0008
1820.00,0.0007
1819.00,0.0007
1818.00,0.0006
1817.00,0.0005
1816.00,0.0006
1815.00,0.0006
1814.00,0.0006
1813.00,0.0007
1812.00,0.0008
1811.00,0.0008
1810.00,0.0008
1809.00,0.0009
1808.00,0.0009
1807.00,0.0009
1806.00,0.0008
1805.00,0.0008
1804.00,0.0008
1803.00,0.0009
1802.00,0.0009
1801.00,0.0009
1800.00,0.0009
1799.00,0.0009
1798.00,0.0009
1797.00,0.0010
1796.00,0.0010
1795.00,0.0009
1794.00,0.0008
1793.00,0.0008
1792.00,0.0009
1791.00,0.0009
1790.00,0.0009
1789.00,0.0008
1788.00,0.0008
1787.00,0.0009
1786.00,0.0009
1785.00,0.0010
1784.00,0.0010
1783.00,0.0010
1782.00,0.0011
1781.00,0.0010
1780.00,0.0010
1779.00,0.0009
1778.00,0.0010
1777.00,0.0010
1776.00,0.0011
1775.00,0.0011
1774.00,0.0011
1773.00,0.0011
1772.00,0.0010
1771.00,0.0010
1770.00,0.0010
1769.00,0.0010
1768.00,0.0011
1767.00,0.0011
1766.00,0.0011
1765.00,0.0012
1764.00,0.0012
1763.00,0.0012
1762.00,0.0011
1761.00,0.0011
1760.00,0.0011
1759.00,0.0012
1758.00,0.0011
1757.00,0.0011
1756.00,0.0012
1755.00,0.0013
1754.00,0.0014
1753.00,0.0014
1752.00,0.0014
1751.00,0.0014
1750.00,0.0013
1749.00,0.0014
1748.00,0.0014
1747.00,0.0014
1746.00,0.0014
1745.00,0.0015
1744.00,0.0015
1743.00,0.0015
1742.00,0.0014
1741.00,0.0014
1740.00,0.0014
1739.00,0.0014
1738.00,0.0013
1737.00,0.0013
1736.00,0.0013
1735.00,0.0013
1734.00,0.0013
1733.00,0.0014
1732.00,0.0015
1731.00,0.0015
1730.00,0.0016
1729.00,0.0016
1728.00,0.0016
1727.00,0.0016
1726.00,0.0016
1725.00,0.0016
1724.00,0.0017
1723.00,0.0017
1722.00,0.0017
1721.00,0.0017
1720.00,0.0017
1719.00,0.0017
1718.00,0.0017
1717.00,0.0018
1716.00,0.0018
1715.00,0.0019
1714.00,0.0019
1713.00,0.0020
1712.00,0.0021
1711.00,0.0021
1710.00,0.0021
1709.00,0.0021
1708.00,0.0021
1707.00,0.0022
1706.00,0.0022
1705.00,0.0022
1704.00,0.0022
1703.00,0.0023
1702.00,0.0022
1701.00,0.0022
1700.00,0.0022
1699.00,0.0022
1698.00,0.0024
1697.00,0.0025
1696.00,0.0025
1695.00,0.0025
1694.00,0.0025
1693.00,0.0025
1692.00,0.0025
1691.00,0.0026
1690.00,0.0027
1689.00,0.0027
1688.00,0.0028
1687.00,0.0028
1686.00,0.0028
1685.00,0.0028
1684.00,0.0028
1683.00,0.0029
1682.00,0.0029
1681.00,0.0028
1680.00,0.0028
1679.00,0.0028
1678.00,0.0028
1677.00,0.0029
1676.00,0.0030
1675.00,0.0031
1674.00,0.0031
1673.00,0.0031
1672.00,0.0030
1671.00,0.0030
1670.00,0.0031
1669.00,0.0031
1668.00,0.0032
1667.00,0.0031
1666.00,0.0031
1665.00,0.0031
1664.00,0.0031
1663.00,0.0031
1662.00,0.0031
1661.00,0.0032
1660.00,0.0033
1659.00,0.0034
1658.00,0.0035
1657.00,0.0035
1656.00,0.0035
1655.00,0.0033
1654.00,0.0031
1653.00,0.0032
1652.00,0.0035
1651.00,0.0035
1650.00,0.0035
1649.00,0.0035
1648.00,0.0035
1647.00,0.0035
1646.00,0.0035
1645.00,0.0036
1644.00,0.0037
1643.00,0.0037
1642.00,0.0037
1641.00,0.0037
1640.00,0.0037
1639.00,0.0037
1638.00,0.0037
1637.00,0.0037
1636.00,0.0038
1635.00,0.0039
1634.00,0.0038
1633.00,0.0037
1632.00,0.0035
1631.00,0.0035
1630.00,0.0035
1629.00,0.0035
1628.00,0.0035
1627.00,0.0035
1626.00,0.0035
1625.00,0.0036
1624.00,0.0037
1623.00,0.0037
1622.00,0.0037
1621.00,0.0037
1620.00,0.0037
1619.00,0.0037
1618.00,0.0037
1617.00,0.0036
1616.00,0.0036
1615.00,0.0036
1614.00,0.0036
1613.00,0.0036
1612.00,0.0036
1611.00,0.0036
1610.00,0.0037
1609.00,0.0036
1608.00,0.0036
1607.00,0.0035
1606.00,0.0035
1605.00,0.0036
1604.00,0.0035
1603.00,0.0035
1602.00,0.0034
1601.00,0.0033
1600.00,0.0033
1599.00,0.0033
1598.00,0.0034
1597.00,0.0034
1596.00,0.0035
1595.00,0.0035
1594.00,0.0035
1593.00,0.0034
1592.00,0.0034
1591.00,0.0034
1590.00,0.0033
1589.00,0.0033
1588.00,0.0034
1587.00,0.0035
1586.00,0.0035
1585.00,0.0035
1584.00,0.0034
1583.00,0.0034
1582.00,0.0034
1581.00,0.0034
1580.00,0.0034
1579.00,0.0035
1578.00,0.0037
1577.00,0.0038
1576.00,0.0037
1575.00,0.0035
1574.00,0.0033
1573.00,0.0032
1572.00,0.0032
1571.00,0.0032
1570.00,0.0032
1569.00,0.0032
1568.00,0.0032
1567.00,0.0033
1566.00,0.0032
1565.00,0.0032
1564.00,0.0031
1563.00,0.0031
1562.00,0.0031
1561.00,0.0032
1560.00,0.0032
1559.00,0.0032
1558.00,0.0031
1557.00,0.0030
1556.00,0.0029
1555.00,0.0029
1554.00,0.0030
1553.00,0.0031
1552.00,0.0032
1551.00,0.0032
1550.00,0.0031
1549.00,0.0030
1548.00,0.0028
1547.00,0.0028
1546.00,0.0027
1545.00,0.0027
1544.00,0.0026
1543.00,0.0025
1542.00,0.0025
1541.00,0.0025
1540.00,0.0026
1539.00,0.0026
1538.00,0.0025
1537.00,0.0024
1536.00,0.0024
1535.00,0.0024
1534.00,0.0025
1533.00,0.0025
1532.00,0.0026
1531.00,0.0026
1530.00,0.0026
1529.00,0.0026
1528.00,0.0026
1527.00,0.0025
1526.00,0.0024
1525.00,0.0023
1524.00,0.0022
1523.00,0.0022
1522.00,0.0022
1521.00,0.0023
1520.00,0.0025
1519.00,0.0026
1518.00,0.0027
1517.00,0.0026
1516.00,0.0026
1515.00,0.0025
1514.00,0.0024
1513.00,0.0024
1512.00,0.0024
1511.00,0.0024
1510.00,0.0024
1509.00,0.0025
1508.00,0.0025
1507.00,0.0025
1506.00,0.0026
1505.00,0.0025
1504.00,0.0024
1503.00,0.0023
1502.00,0.0023
1501.00,0.0022
1500.00,0.0023
1499.00,0.0023
1498.00,0.0024
1497.00,0.0025
1496.00,0.0026
1495.00,0.0025
1494.00,0.0024
1493.00,0.0023
1492.00,0.0023
1491.00,0.0023
1490.00,0.0024
1489.00,0.0025
1488.00,0.0025
1487.00,0.0024
1486.00,0.0023
1485.00,0.0022
1484.00,0.0022
1483.00,0.0022
1482.00,0.0022
1481.00,0.0022
1480.00,0.0022
1479.00,0.0022
1478.00,0.0021
1477.00,0.0021
1476.00,0.0021
1475.00,0.0021
1474.00,0.0020
1473.00,0.0020
1472.00,0.0021
1471.00,0.0022
1470.00,0.0023
1469.00,0.0023
1468.00,0.0024
1467.00,0.0023
1466.00,0.0022
1465.00,0.0021
1464.00,0.0020
1463.00,0.0019
1462.00,0.0018
1461.00,0.0018
1460.00,0.0018
1459.00,0.0018
1458.00,0.0018
1457.00,0.0018
1456.00,0.0019
1455.00,0.0019
1454.00,0.0019
1453.00,0.0019
1452.00,0.0019
1451.00,0.0020
1450.00,0.0021
1449.00,0.0022
1448.00,0.0023
1447.00,0.0024
1446.00,0.0024
1445.00,0.0024
1444.00,0.0024
1443.00,0.0024
1442.00,0.0023
1441.00,0.0022
1440.00,0.0022
1439.00,0.0023
1438.00,0.0023
1437.00,0.0024
1436.00,0.0024
1435.00,0.0025
1434.00,0.0024
1433.00,0.0024
1432.00,0.0024
1431.00,0.0024
1430.00,0.0023
1429.00,0.0022
1428.00,0.0022
1427.00,0.0022
1426.00,0.0023
1425.00,0.0024
1424.00,0.0024
1423.00,0.0024
1422.00,0.0024
1421.00,0.0024
1420.00,0.0024
1419.00,0.0024
1418.00,0.0024
1417.00,0.0025
1416.00,0.0025
1415.00,0.0025
1414.00,0.0024
1413.00,0.0023
1412.00,0.0022
1411.00,0.0022
1410.00,0.0022
1409.00,0.0022
1408.00,0.0021
1407.00,0.0021
1406.00,0.0020
1405.00,0.0019
1404.00,0.0018
1403.00,0.0017
1402.00,0.0016
1401.00,0.0015
1400.00,0.0014
1399.00,0.0014
1398.00,0.0013
1397.00,0.0013
1396.00,0.0013
1395.00,0.0012
1394.00,0.0012
1393.00,0.0012
1392.00,0.0012
1391.00,0.0012
1390.00,0.0012
1389.00,0.0013
1388.00,0.0012
1387.00,0.0012
1386.00,0.0011
1385.00,0.0011
1384.00,0.0010
1383.00,0.0010
1382.00,0.0011
1381.00,0.0011
1380.00,0.0012
1379.00,0.0013
1378.00,0.0014
1377.00,0.0014
1376.00,0.0015
1375.00,0.0016
1374.00,0.0016
1373.00,0.0016
1372.00,0.0016
1371.00,0.0017
1370.00,0.0017
1369.00,0.0017
1368.00,0.0017
1367.00,0.0017
1366.00,0.0017
1365.00,0.0017
1364.00,0.0017
1363.00,0.0018
1362.00,0.0019
1361.00,0.0019
1360.00,0.0019
1359.00,0.0019
1358.00,0.0019
1357.00,0.0020
1356.00,0.0020
1355.00,0.0021
1354.00,0.0021
1353.00,0.0021
1352.00,0.0020
1351.00,0.0020
1350.00,0.0019
1349.00,0.0018
1348.00,0.0018
1347.00,0.0018
1346.00,0.0018
1345.00,0.0018
1344.00,0.0018
1343.00,0.0018
1342.00,0.0019
1341.00,0.0020
1340.00,0.0021
1339.00,0.0022
1338.00,0.0021
1337.00,0.0021
1336.00,0.0020
1335.00,0.0019
1334.00,0.0019
1333.00,0.0019
1332.00,0.0019
1331.00,0.0019
1330.00,0.0019
1329.00,0.0019
1328.00,0.0019
1327.00,0.0018
1326.00,0.0018
1325.00,0.0018
1324.00,0.0019
1323.00,0.0019
1322.00,0.0020
1321.00,0.0021
1320.00,0.0022
1319.00,0.0021
1318.00,0.0020
1317.00,0.0019
1316.00,0.0018
1315.00,0.0018
1314.00,0.0018
1313.00,0.0019
1312.00,0.0020
1311.00,0.0021
1310.00,0.0021
1309.00,0.0021
1308.00,0.0020
1307.00,0.0020
1306.00,0.0020
1305.00,0.0020
1304.00,0.0020
1303.00,0.0021
1302.00,0.0021
1301.00,0.0021
1300.00,0.0021
1299.00,0.0020
1298.00,0.0020
1297.00,0.0019
1296.00,0.0019
1295.00,0.0019
1294.00,0.0019
1293.00,0.0019
1292.00,0.0020
1291.00,0.0020
1290.00,0.0020
1289.00,0.0021
1288.00,0.0020
1287.00,0.0020
1286.00,0.0019
1285.00,0.0019
1284.00,0.0020
1283.00,0.0020
1282.00,0.0020
1281.00,0.0019
1280.00,0.0018
1279.00,0.0017
1278.00,0.0016
1277.00,0.0015
1276.00,0.0015
1275.00,0.0015
1274.00,0.0016
1273.00,0.0015
1272.00,0.0015
1271.00,0.0014
1270.00,0.0014
1269.00,0.0014
1268.00,0.0014
1267.00,0.0013
1266.00,0.0013
1265.00,0.0013
1264.00,0.0012
1263.00,0.0011
1262.00,0.0011
1261.00,0.0011
1260.00,0.0011
1259.00,0.0012
1258.00,0.0013
1257.00,0.0012
1256.00,0.0012
1255.00,0.0011
1254.00,0.0011
1253.00,0.0011
1252.00,0.0012
1251.00,0.0011
1250.00,0.0011
1249.00,0.0010
1248.00,0.0010
1247.00,0.0011
1246.00,0.0012
1245.00,0.0013
1244.00,0.0013
1243.00,0.0013
1242.00,0.0013
1241.00,0.0012
1240.00,0.0012
1239.00,0.0013
1238.00,0.0014
1237.00,0.0015
1236.00,0.0015
1235.00,0.0015
1234.00,0.0015
1233.00,0.0016
1232.00,0.0016
1231.00,0.0016
1230.00,0.0016
1229.00,0.0017
1228.00,0.0017
1227.00,0.0018
1226.00,0.0019
1225.00,0.0019
1224.00,0.0018
1223.00,0.0018
1222.00,0.0019
1221.00,0.0020
1220.00,0.0021
1219.00,0.0022
1218.00,0.0022
1217.00,0.0023
1216.00,0.0023
1215.00,0.0023
1214.00,0.0023
1213.00,0.0023
1212.00,0.0024
1211.00,0.0024
1210.00,0.0025
1209.00,0.0025
1208.00,0.0025
1207.00,0.0025
1206.00,0.0024
1205.00,0.0024
1204.00,0.0024
1203.00,0.0024
1202.00,0.0024
1201.00,0.0025
1200.00,0.0025
1199.00,0.0026
1198.00,0.0026
1197.00,0.0026
1196.00,0.0026
1195.00,0.0026
1194.00,0.0025
1193.00,0.0025
1192.00,0.0026
1191.00,0.0026
1190.00,0.0026
1189.00,0.0025
1188.00,0.0024
1187.00,0.0024
1186.00,0.0024
1185.00,0.0024
1184.00,0.0024
1183.00,0.0023
1182.00,0.0022
1181.00,0.0021
1180.00,0.0020
1179.00,0.0020
1178.00,0.0021
1177.00,0.0021
1176.00,0.0021
1175.00,0.0021
1174.00,0.0021
1173.00,0.0021
1172.00,0.0020
1171.00,0.0020
1170.00,0.0019
1169.00,0.0018
1168.00,0.0018
1167.00,0.0019
1166.00,0.0019
1165.00,0.0018
1164.00,0.0018
1163.00,0.0017
1162.00,0.0017
1161.00,0.0018
1160.00,0.0018
1159.00,0.0019
1158.00,0.0018
1157.00,0.0018
1156.00,0.0019
1155.00,0.0020
1154.00,0.0020
1153.00,0.0020
1152.00,0.0019
1151.00,0.0018
1150.00,0.0016
1149.00,0.0015
1148.00,0.0015
1147.00,0.0016
1146.00,0.0017
1145.00,0.0018
1144.00,0.0019
1143.00,0.0021
1142.00,0.0022
1141.00,0.0022
1140.00,0.0021
1139.00,0.0021
1138.00,0.0020
1137.00,0.0020
1136.00,0.0021
1135.00,0.0023
1134.00,0.0024
1133.00,0.0026
1132.00,0.0026
1131.00,0.0026
1130.00,0.0026
1129.00,0.0027
1128.00,0.0028
1127.00,0.0027
1126.00,0.0024
1125.00,0.0022
1124.00,0.0021
1123.00,0.0023
1122.00,0.0027
1121.00,0.0030
1120.00,0.0033
1119.00,0.0034
1118.00,0.0034
1117.00,0.0033
1116.00,0.0034
1115.00,0.0035
1114.00,0.0035
1113.00,0.0035
1112.00,0.0034
1111.00,0.0033
1110.00,0.0032
1109.00,0.0033
1108.00,0.0033
1107.00,0.0032
1106.00,0.0031
1105.00,0.0029
1104.00,0.0029
1103.00,0.0031
1102.00,0.0033
1101.00,0.0034
1100.00,0.0035
1099.00,0.0035
1098.00,0.0035
1097.00,0.0034
1096.00,0.0034
1095.00,0.0033
1094.00,0.0032
1093.00,0.0032
1092.00,0.0032
1091.00,0.0033
1090.00,0.0033
1089.00,0.0032
1088.00,0.0031
1087.00,0.0030
1086.00,0.0031
1085.00,0.0032
1084.00,0.0033
1083.00,0.0033
1082.00,0.0034
1081.00,0.0034
1080.00,0.0035
1079.00,0.0036
1078.00,0.0038
1077.00,0.0040
1076.00,0.0041
1075.00,0.0040
1074.00,0.0038
1073.00,0.0036
1072.00,0.0035
1071.00,0.0034
1070.00,0.0033
1069.00,0.0032
1068.00,0.0032
1067.00,0.0033
1066.00,0.0035
1065.00,0.0037
1064.00,0.0039
1063.00,0.0040
1062.00,0.0041
1061.00,0.0039
1060.00,0.0037
1059.00,0.0036
1058.00,0.0036
1057.00,0.0038
1056.00,0.0040
1055.00,0.0041
1054.00,0.0043
1053.00,0.0044
1052.00,0.0045
1051.00,0.0046
1050.00,0.0046
1049.00,0.0048
1048.00,0.0049
1047.00,0.0049
1046.00,0.0049
1045.00,0.0049
1044.00,0.0049
1043.00,0.0048
1042.00,0.0047
1041.00,0.0046
1040.00,0.0045
1039.00,0.0046
1038.00,0.0048
1037.00,0.0049
1036.00,0.0049
1035.00,0.0048
1034.00,0.0047
1033.00,0.0047
1032.00,0.0046
1031.00,0.0046
1030.00,0.0046
1029.00,0.0045
1028.00,0.0044
1027.00,0.0043
1026.00,0.0044
1025.00,0.0045
1024.00,0.0046
1023.00,0.0045
1022.00,0.0043
1021.00,0.0042
1020.00,0.0040
1019.00,0.0040
1018.00,0.0040
1017.00,0.0040
1016.00,0.0040
1015.00,0.0041
1014.00,0.0042
1013.00,0.0043
1012.00,0.0042
1011.00,0.0042
1010.00,0.0042
1009.00,0.0042
1008.00,0.0042
1007.00,0.0041
1006.00,0.0039
1005.00,0.0039
1004.00,0.0039
1003.00,0.0040
1002.00,0.0040
1001.00,0.0039
1000.00,0.0036
999.00,0.0033
998.00,0.0031
997.00,0.0030
996.00,0.0031
995.00,0.0032
994.00,0.0032
993.00,0.0031
992.00,0.0029
991.00,0.0028
990.00,0.0028
989.00,0.0027
988.00,0.0027
987.00,0.0027
986.00,0.0028
985.00,0.0028
984.00,0.0028
983.00,0.0026
982.00,0.0025
981.00,0.0024
980.00,0.0024
979.00,0.0023
978.00,0.0022
977.00,0.0019
976.00,0.0017
975.00,0.0016
974.00,0.0015
973.00,0.0015
972.00,0.0015
971.00,0.0014
970.00,0.0012
969.00,0.0011
968.00,0.0010
967.00,0.0009
966.00,0.0009
965.00,0.0008
964.00,0.0007
963.00,0.0007
962.00,0.0007
961.00,0.0007
960.00,0.0006
959.00,0.0004
958.00,0.0004
957.00,0.0004
956.00,0.0004
955.00,0.0004
954.00,0.0004
953.00,0.0004
952.00,0.0004
951.00,0.0005
950.00,0.0007
949.00,0.0007
948.00,0.0007
947.00,0.0006
946.00,0.0004
945.00,0.0003
944.00,0.0002
943.00,0.0002
942.00,0.0002
941.00,0.0002
940.00,0.0004
939.00,0.0007
938.00,0.0008
937.00,0.0008
936.00,0.0007
935.00,0.0005
934.00,0.0005
933.00,0.0007
932.00,0.0011
931.00,0.0014
930.00,0.0015
929.00,0.0016
928.00,0.0016
927.00,0.0016
926.00,0.0015
925.00,0.0016
924.00,0.0016
923.00,0.0017
922.00,0.0017
921.00,0.0017
920.00,0.0016
919.00,0.0015
918.00,0.0014
917.00,0.0015
916.00,0.0016
915.00,0.0017
914.00,0.0017
913.00,0.0017
912.00,0.0016
911.00,0.0016
910.00,0.0015
909.00,0.0012
908.00,0.0009
907.00,0.0007
906.00,0.0007
905.00,0.0010
904.00,0.0014
903.00,0.0017
902.00,0.0020
901.00,0.0020
900.00,0.0019
899.00,0.0018
898.00,0.0019
897.00,0.0020
896.00,0.0021
895.00,0.0021
894.00,0.0020
893.00,0.0018
892.00,0.0016
891.00,0.0014
890.00,0.0015
889.00,0.0016
888.00,0.0018
887.00,0.0018
886.00,0.0015
885.00,0.0013
884.00,0.0013
883.00,0.0015
882.00,0.0017
881.00,0.0018
880.00,0.0017
879.00,0.0015
878.00,0.0012
877.00,0.0009
876.00,0.0008
875.00,0.0007
874.00,0.0008
873.00,0.0009
872.00,0.0009
871.00,0.0010
870.00,0.0011
869.00,0.0011
868.00,0.0010
867.00,0.0009
866.00,0.0008
865.00,0.0009
864.00,0.0010
863.00,0.0012
862.00,0.0014
861.00,0.0015
860.00,0.0016
859.00,0.0014
858.00,0.0012
857.00,0.0009
856.00,0.0009
855.00,0.0011
854.00,0.0013
853.00,0.0014
852.00,0.0014
851.00,0.0013
850.00,0.0014
849.00,0.0015
848.00,0.0016
847.00,0.0017
846.00,0.0019
845.00,0.0020
844.00,0.0020
843.00,0.0019
842.00,0.0017
841.00,0.0015
840.00,0.0013
839.00,0.0011
838.00,0.0010
837.00,0.0010
836.00,0.0011
835.00,0.0011
834.00,0.0011
833.00,0.0010
832.00,0.0009
831.00,0.0009
830.00,0.0008
829.00,0.0007
828.00,0.0007
827.00,0.0009
826.00,0.0012
825.00,0.0014
824.00,0.0014
823.00,0.0014
822.00,0.0015
821.00,0.0016
820.00,0.0016
819.00,0.0017
818.00,0.0016
817.00,0.0014
816.00,0.0012
815.00,0.0011
814.00,0.0013
813.00,0.0015
812.00,0.0017
811.00,0.0018
810.00,0.0017
809.00,0.0017
808.00,0.0016
807.00,0.0015
806.00,0.0014
805.00,0.0013
804.00,0.0013
803.00,0.0013
802.00,0.0014
801.00,0.0016
800.00,0.0019
799.00,0.0021
798.00,0.0021
797.00,0.0019
796.00,0.0017
795.00,0.0017
794.00,0.0017
793.00,0.0018
792.00,0.0020
791.00,0.0021
790.00,0.0023
789.00,0.0023
788.00,0.0022
787.00,0.0022
786.00,0.0022
785.00,0.0022
784.00,0.0022
783.00,0.0022
782.00,0.0022
781.00,0.0022
780.00,0.0023
779.00,0.0023
778.00,0.0024
777.00,0.0024
776.00,0.0024
775.00,0.0023
774.00,0.0021
773.00,0.0019
772.00,0.0018
771.00,0.0018
770.00,0.0019
769.00,0.0020
768.00,0.0019
767.00,0.0018
766.00,0.0017
765.00,0.0015
764.00,0.0015
763.00,0.0014
762.00,0.0012
761.00,0.0010
760.00,0.0010
759.00,0.0012
758.00,0.0015
757.00,0.0017
756.00,0.0017
755.00,0.0016
754.00,0.0015
753.00,0.0014
752.00,0.0015
751.00,0.0017
750.00,0.0020
749.00,0.0022
748.00,0.0022
747.00,0.0023
746.00,0.0022
745.00,0.0020
744.00,0.0018
743.00,0.0017
742.00,0.0016
741.00,0.0014
740.00,0.0012
739.00,0.0010
738.00,0.0008
737.00,0.0008
736.00,0.0008
735.00,0.0009
734.00,0.0009
733.00,0.0010
732.00,0.0011
731.00,0.0012
730.00,0.0013
729.00,0.0014
728.00,0.0016
727.00,0.0018
726.00,0.0020
725.00,0.0020
724.00,0.0019
723.00,0.0016
722.00,0.0013
721.00,0.0013
720.00,0.0013
719.00,0.0015
718.00,0.0016
717.00,0.0015
716.00,0.0013
715.00,0.0010
714.00,0.0009
713.00,0.0009
712.00,0.0011
711.00,0.0012
710.00,0.0011
709.00,0.0010
708.00,0.0009
707.00,0.0009
706.00,0.0009
705.00,0.0011
704.00,0.0014
703.00,0.0016
702.00,0.0017
701.00,0.0015
700.00,0.0013
699.00,0.0012
698.00,0.0012
697.00,0.0013
696.00,0.0014
695.00,0.0014
694.00,0.0015
693.00,0.0015
692.00,0.0015
691.00,0.0014
690.00,0.0014
689.00,0.0014
688.00,0.0014
687.00,0.0014
686.00,0.0013
685.00,0.0012
684.00,0.0012
683.00,0.0010
682.00,0.0007
681.00,0.0006
680.00,0.0007
679.00,0.0008
678.00,0.0010
677.00,0.0010
676.00,0.0010
675.00,0.0010
674.00,0.0010
673.00,0.0012
672.00,0.0014
671.00,0.0017
670.00,0.0020
669.00,0.0021
668.00,0.0020
667.00,0.0018
666.00,0.0018
665.00,0.0019
664.00,0.0019
663.00,0.0017
662.00,0.0014
661.00,0.0010
660.00,0.0005
659.00,0.0002
658.00,0.0001
657.00,0.0004
656.00,0.0007
655.00,0.0007
654.00,0.0004
653.00,-0.0001
652.00,-0.0004
651.00,-0.0004
650.00,-0.0000
