Created as New Dataset,Monday, April 03 2023
cm-1,A
4000.00,0.0038
3999.00,0.0037
3998.00,0.0037
3997.00,0.0037
3996.00,0.0037
3995.00,0.0037
3994.00,0.0037
3993.00,0.0037
3992.00,0.0038
3991.00,0.0038
3990.00,0.0038
3989.00,0.0037
3988.00,0.0038
3987.00,0.0038
3986.00,0.0038
3985.00,0.0037
3984.00,0.0037
3983.00,0.0037
3982.00,0.0037
3981.00,0.0037
3980.00,0.0038
3979.00,0.0038
3978.00,0.0038
3977.00,0.0039
3976.00,0.0038
3975.00,0.0038
3974.00,0.0038
3973.00,0.0038
3972.00,0.0038
3971.00,0.0038
3970.00,0.0038
3969.00,0.0038
3968.00,0.0038
3967.00,0.0038
3966.00,0.0038
3965.00,0.0038
3964.00,0.0038
3963.00,0.0038
3962.00,0.0038
3961.00,0.0038
3960.00,0.0038
3959.00,0.0038
3958.00,0.0038
3957.00,0.0038
3956.00,0.0038
3955.00,0.0038
3954.00,0.0038
3953.00,0.0039
3952.00,0.0039
3951.00,0.0039
3950.00,0.0039
3949.00,0.0039
3948.00,0.0039
3947.00,0.0039
3946.00,0.0040
3945.00,0.0039
3944.00,0.0039
3943.00,0.0038
3942.00,0.0038
3941.00,0.0038
3940.00,0.0038
3939.00,0.0039
3938.00,0.0039
3937.00,0.0039
3936.00,0.0040
3935.00,0.0041
3934.00,0.0041
3933.00,0.0041
3932.00,0.0041
3931.00,0.0041
3930.00,0.0040
3929.00,0.0040
3928.00,0.0040
3927.00,0.0040
3926.00,0.0040
3925.00,0.0040
3924.00,0.0040
3923.00,0.0040
3922.00,0.0040
3921.00,0.0041
3920.00,0.0041
3919.00,0.0041
3918.00,0.0041
3917.00,0.0040
3916.00,0.0040
3915.00,0.0039
3914.00,0.0039
3913.00,0.0039
3912.00,0.0040
3911.00,0.0040
3910.00,0.0040
3909.00,0.0040
3908.00,0.0040
3907.00,0.0041
3906.00,0.0041
3905.00,0.0042
3904.00,0.0043
3903.00,0.0044
3902.00,0.0044
3901.00,0.0044
3900.00,0.0043
3899.00,0.0042
3898.00,0.0042
3897.00,0.0042
3896.00,0.0042
3895.00,0.0043
3894.00,0.0042
3893.00,0.0042
3892.00,0.0041
3891.00,0.0041
3890.00,0.0041
3889.00,0.0042
3888.00,0.0042
3887.00,0.0043
3886.00,0.0043
3885.00,0.0043
3884.00,0.0043
3883.00,0.0043
3882.00,0.0043
3881.00,0.0042
3880.00,0.0042
3879.00,0.0042
3878.00,0.0042
3877.00,0.0042
3876.00,0.0042
3875.00,0.0042
3874.00,0.0042
3873.00,0.0042
3872.00,0.0043
3871.00,0.0043
3870.00,0.0042
3869.00,0.0043
3868.00,0.0043
3867.00,0.0044
3866.00,0.0044
3865.00,0.0044
3864.00,0.0043
3863.00,0.0042
3862.00,0.0042
3861.00,0.0043
3860.00,0.0043
3859.00,0.0043
3858.00,0.0043
3857.00,0.0043
3856.00,0.0043
3855.00,0.0045
3854.00,0.0046
3853.00,0.0045
3852.00,0.0044
3851.00,0.0044
3850.00,0.0043
3849.00,0.0043
3848.00,0.0043
3847.00,0.0042
3846.00,0.0042
3845.00,0.0042
3844.00,0.0042
3843.00,0.0042
3842.00,0.0043
3841.00,0.0043
3840.00,0.0043
3839.00,0.0043
3838.00,0.0043
3837.00,0.0043
3836.00,0.0043
3835.00,0.0043
3834.00,0.0043
3833.00,0.0044
3832.00,0.0044
3831.00,0.0045
3830.00,0.0045
3829.00,0.0045
3828.00,0.0044
3827.00,0.0043
3826.00,0.0043
3825.00,0.0043
3824.00,0.0044
3823.00,0.0044
3822.00,0.0044
3821.00,0.0044
3820.00,0.0044
3819.00,0.0045
3818.00,0.0044
3817.00,0.0044
3816.00,0.0043
3815.00,0.0043
3814.00,0.0043
3813.00,0.0044
3812.00,0.0044
3811.00,0.0044
3810.00,0.0043
3809.00,0.0043
3808.00,0.0044
3807.00,0.0045
3806.00,0.0045
3805.00,0.0045
3804.00,0.0045
3803.00,0.0045
3802.00,0.0045
3801.00,0.0045
3800.00,0.0045
3799.00,0.0045
3798.00,0.0044
3797.00,0.0044
3796.00,0.0044
3795.00,0.0044
3794.00,0.0044
3793.00,0.0044
3792.00,0.0044
3791.00,0.0043
3790.00,0.0043
3789.00,0.0044
3788.00,0.0044
3787.00,0.0044
3786.00,0.0044
3785.00,0.0044
3784.00,0.0044
3783.00,0.0044
3782.00,0.0044
3781.00,0.0044
3780.00,0.0044
3779.00,0.0043
3778.00,0.0044
3777.00,0.0044
3776.00,0.0044
3775.00,0.0044
3774.00,0.0044
3773.00,0.0045
3772.00,0.0045
3771.00,0.0045
3770.00,0.0046
3769.00,0.0045
3768.00,0.0045
3767.00,0.0045
3766.00,0.0045
3765.00,0.0045
3764.00,0.0045
3763.00,0.0046
3762.00,0.0046
3761.00,0.0046
3760.00,0.0046
3759.00,0.0046
3758.00,0.0046
3757.00,0.0046
3756.00,0.0046
3755.00,0.0046
3754.00,0.0046
3753.00,0.0046
3752.00,0.0047
3751.00,0.0048
3750.00,0.0048
3749.00,0.0049
3748.00,0.0048
3747.00,0.0047
3746.00,0.0047
3745.00,0.0047
3744.00,0.0048
3743.00,0.0048
3742.00,0.0048
3741.00,0.0048
3740.00,0.0049
3739.00,0.0049
3738.00,0.0049
3737.00,0.0049
3736.00,0.0049
3735.00,0.0048
3734.00,0.0048
3733.00,0.0048
3732.00,0.0048
3731.00,0.0048
3730.00,0.0048
3729.00,0.0048
3728.00,0.0048
3727.00,0.0048
3726.00,0.0048
3725.00,0.0047
3724.00,0.0047
3723.00,0.0046
3722.00,0.0046
3721.00,0.0045
3720.00,0.0045
3719.00,0.0045
3718.00,0.0046
3717.00,0.0046
3716.00,0.0046
3715.00,0.0046
3714.00,0.0046
3713.00,0.0046
3712.00,0.0045
3711.00,0.0044
3710.00,0.0045
3709.00,0.0045
3708.00,0.0046
3707.00,0.0046
3706.00,0.0046
3705.00,0.0045
3704.00,0.0045
3703.00,0.0044
3702.00,0.0044
3701.00,0.0044
3700.00,0.0044
3699.00,0.0045
3698.00,0.0045
3697.00,0.0044
3696.00,0.0044
3695.00,0.0044
3694.00,0.0044
3693.00,0.0044
3692.00,0.0044
3691.00,0.0044
3690.00,0.0045
3689.00,0.0045
3688.00,0.0046
3687.00,0.0046
3686.00,0.0045
3685.00,0.0045
3684.00,0.0045
3683.00,0.0045
3682.00,0.0045
3681.00,0.0045
3680.00,0.0044
3679.00,0.0043
3678.00,0.0043
3677.00,0.0043
3676.00,0.0044
3675.00,0.0045
3674.00,0.0046
3673.00,0.0047
3672.00,0.0047
3671.00,0.0046
3670.00,0.0045
3669.00,0.0044
3668.00,0.0043
3667.00,0.0043
3666.00,0.0043
3665.00,0.0043
3664.00,0.0043
3663.00,0.0043
3662.00,0.0043
3661.00,0.0043
3660.00,0.0043
3659.00,0.0043
3658.00,0.0044
3657.00,0.0044
3656.00,0.0045
3655.00,0.0045
3654.00,0.0045
3653.00,0.0045
3652.00,0.0044
3651.00,0.0044
3650.00,0.0045
3649.00,0.0044
3648.00,0.0043
3647.00,0.0043
3646.00,0.0043
3645.00,0.0044
3644.00,0.0044
3643.00,0.0044
3642.00,0.0044
3641.00,0.0043
3640.00,0.0043
3639.00,0.0042
3638.00,0.0042
3637.00,0.0042
3636.00,0.0042
3635.00,0.0043
3634.00,0.0043
3633.00,0.0044
3632.00,0.0045
3631.00,0.0046
3630.00,0.0046
3629.00,0.0046
3628.00,0.0046
3627.00,0.0046
3626.00,0.0046
3625.00,0.0045
3624.00,0.0045
3623.00,0.0044
3622.00,0.0044
3621.00,0.0044
3620.00,0.0044
3619.00,0.0045
3618.00,0.0045
3617.00,0.0045
3616.00,0.0045
3615.00,0.0045
3614.00,0.0044
3613.00,0.0044
3612.00,0.0045
3611.00,0.0046
3610.00,0.0047
3609.00,0.0046
3608.00,0.0045
3607.00,0.0043
3606.00,0.0043
3605.00,0.0043
3604.00,0.0043
3603.00,0.0043
3602.00,0.0043
3601.00,0.0043
3600.00,0.0042
3599.00,0.0042
3598.00,0.0042
3597.00,0.0042
3596.00,0.0042
3595.00,0.0042
3594.00,0.0042
3593.00,0.0043
3592.00,0.0044
3591.00,0.0044
3590.00,0.0044
3589.00,0.0044
3588.00,0.0043
3587.00,0.0042
3586.00,0.0042
3585.00,0.0042
3584.00,0.0042
3583.00,0.0042
3582.00,0.0042
3581.00,0.0042
3580.00,0.0042
3579.00,0.0042
3578.00,0.0041
3577.00,0.0041
3576.00,0.0041
3575.00,0.0041
3574.00,0.0041
3573.00,0.0042
3572.00,0.0042
3571.00,0.0042
3570.00,0.0043
3569.00,0.0043
3568.00,0.0044
3567.00,0.0044
3566.00,0.0043
3565.00,0.0043
3564.00,0.0042
3563.00,0.0042
3562.00,0.0042
3561.00,0.0041
3560.00,0.0041
3559.00,0.0041
3558.00,0.0041
3557.00,0.0041
3556.00,0.0041
3555.00,0.0041
3554.00,0.0041
3553.00,0.0041
3552.00,0.0041
3551.00,0.0041
3550.00,0.0041
3549.00,0.0042
3548.00,0.0042
3547.00,0.0042
3546.00,0.0043
3545.00,0.0043
3544.00,0.0042
3543.00,0.0042
3542.00,0.0041
3541.00,0.0041
3540.00,0.0041
3539.00,0.0041
3538.00,0.0041
3537.00,0.0041
3536.00,0.0041
3535.00,0.0042
3534.00,0.0042
3533.00,0.0042
3532.00,0.0042
3531.00,0.0042
3530.00,0.0041
3529.00,0.0041
3528.00,0.0041
3527.00,0.0042
3526.00,0.0042
3525.00,0.0042
3524.00,0.0041
3523.00,0.0041
3522.00,0.0040
3521.00,0.0040
3520.00,0.0040
3519.00,0.0041
3518.00,0.0041
3517.00,0.0041
3516.00,0.0041
3515.00,0.0041
3514.00,0.0041
3513.00,0.0041
3512.00,0.0040
3511.00,0.0040
3510.00,0.0041
3509.00,0.0041
3508.00,0.0041
3507.00,0.0041
3506.00,0.0041
3505.00,0.0041
3504.00,0.0040
3503.00,0.0041
3502.00,0.0041
3501.00,0.0041
3500.00,0.0042
3499.00,0.0041
3498.00,0.0041
3497.00,0.0041
3496.00,0.0041
3495.00,0.0041
3494.00,0.0041
3493.00,0.0041
3492.00,0.0041
3491.00,0.0041
3490.00,0.0041
3489.00,0.0041
3488.00,0.0041
3487.00,0.0041
3486.00,0.0041
3485.00,0.0042
3484.00,0.0041
3483.00,0.0041
3482.00,0.0041
3481.00,0.0040
3480.00,0.0040
3479.00,0.0040
3478.00,0.0040
3477.00,0.0040
3476.00,0.0040
3475.00,0.0040
3474.00,0.0040
3473.00,0.0040
3472.00,0.0040
3471.00,0.0040
3470.00,0.0040
3469.00,0.0040
3468.00,0.0040
3467.00,0.0040
3466.00,0.0040
3465.00,0.0041
3464.00,0.0041
3463.00,0.0041
3462.00,0.0041
3461.00,0.0041
3460.00,0.0041
3459.00,0.0040
3458.00,0.0040
3457.00,0.0040
3456.00,0.0040
3455.00,0.0040
3454.00,0.0040
3453.00,0.0040
3452.00,0.0040
3451.00,0.0040
3450.00,0.0040
3449.00,0.0040
3448.00,0.0040
3447.00,0.0040
3446.00,0.0040
3445.00,0.0040
3444.00,0.0041
3443.00,0.0040
3442.00,0.0040
3441.00,0.0040
3440.00,0.0040
3439.00,0.0040
3438.00,0.0041
3437.00,0.0041
3436.00,0.0041
3435.00,0.0041
3434.00,0.0041
3433.00,0.0041
3432.00,0.0041
3431.00,0.0041
3430.00,0.0041
3429.00,0.0041
3428.00,0.0041
3427.00,0.0041
3426.00,0.0041
3425.00,0.0041
3424.00,0.0041
3423.00,0.0042
3422.00,0.0042
3421.00,0.0042
3420.00,0.0041
3419.00,0.0041
3418.00,0.0040
3417.00,0.0040
3416.00,0.0039
3415.00,0.0039
3414.00,0.0039
3413.00,0.0040
3412.00,0.0040
3411.00,0.0040
3410.00,0.0040
3409.00,0.0039
3408.00,0.0039
3407.00,0.0040
3406.00,0.0040
3405.00,0.0040
3404.00,0.0040
3403.00,0.0041
3402.00,0.0041
3401.00,0.0041
3400.00,0.0041
3399.00,0.0040
3398.00,0.0040
3397.00,0.0041
3396.00,0.0041
3395.00,0.0042
3394.00,0.0042
3393.00,0.0042
3392.00,0.0042
3391.00,0.0041
3390.00,0.0041
3389.00,0.0041
3388.00,0.0041
3387.00,0.0041
3386.00,0.0041
3385.00,0.0041
3384.00,0.0040
3383.00,0.0040
3382.00,0.0040
3381.00,0.0040
3380.00,0.0040
3379.00,0.0041
3378.00,0.0041
3377.00,0.0042
3376.00,0.0042
3375.00,0.0042
3374.00,0.0042
3373.00,0.0042
3372.00,0.0042
3371.00,0.0041
3370.00,0.0041
3369.00,0.0041
3368.00,0.0041
3367.00,0.0041
3366.00,0.0042
3365.00,0.0042
3364.00,0.0042
3363.00,0.0042
3362.00,0.0041
3361.00,0.0041
3360.00,0.0041
3359.00,0.0041
3358.00,0.0041
3357.00,0.0042
3356.00,0.0042
3355.00,0.0042
3354.00,0.0042
3353.00,0.0042
3352.00,0.0042
3351.00,0.0043
3350.00,0.0043
3349.00,0.0043
3348.00,0.0043
3347.00,0.0043
3346.00,0.0042
3345.00,0.0042
3344.00,0.0042
3343.00,0.0042
3342.00,0.0042
3341.00,0.0042
3340.00,0.0042
3339.00,0.0042
3338.00,0.0042
3337.00,0.0043
3336.00,0.0044
3335.00,0.0044
3334.00,0.0044
3333.00,0.0044
3332.00,0.0043
3331.00,0.0043
3330.00,0.0043
3329.00,0.0044
3328.00,0.0044
3327.00,0.0044
3326.00,0.0044
3325.00,0.0044
3324.00,0.0043
3323.00,0.0043
3322.00,0.0043
3321.00,0.0043
3320.00,0.0043
3319.00,0.0043
3318.00,0.0043
3317.00,0.0043
3316.00,0.0043
3315.00,0.0043
3314.00,0.0043
3313.00,0.0043
3312.00,0.0044
3311.00,0.0044
3310.00,0.0044
3309.00,0.0044
3308.00,0.0044
3307.00,0.0044
3306.00,0.0044
3305.00,0.0043
3304.00,0.0043
3303.00,0.0043
3302.00,0.0044
3301.00,0.0044
3300.00,0.0044
3299.00,0.0045
3298.00,0.0045
3297.00,0.0045
3296.00,0.0045
3295.00,0.0045
3294.00,0.0045
3293.00,0.0045
3292.00,0.0045
3291.00,0.0045
3290.00,0.0044
3289.00,0.0044
3288.00,0.0044
3287.00,0.0043
3286.00,0.0043
3285.00,0.0043
3284.00,0.0043
3283.00,0.0043
3282.00,0.0043
3281.00,0.0044
3280.00,0.0044
3279.00,0.0044
3278.00,0.0045
3277.00,0.0045
3276.00,0.0045
3275.00,0.0045
3274.00,0.0045
3273.00,0.0046
3272.00,0.0046
3271.00,0.0046
3270.00,0.0045
3269.00,0.0045
3268.00,0.0044
3267.00,0.0044
3266.00,0.0044
3265.00,0.0044
3264.00,0.0043
3263.00,0.0043
3262.00,0.0043
3261.00,0.0043
3260.00,0.0043
3259.00,0.0043
3258.00,0.0043
3257.00,0.0044
3256.00,0.0044
3255.00,0.0044
3254.00,0.0045
3253.00,0.0045
3252.00,0.0045
3251.00,0.0045
3250.00,0.0045
3249.00,0.0045
3248.00,0.0045
3247.00,0.0045
3246.00,0.0045
3245.00,0.0045
3244.00,0.0045
3243.00,0.0044
3242.00,0.0044
3241.00,0.0044
3240.00,0.0044
3239.00,0.0044
3238.00,0.0045
3237.00,0.0045
3236.00,0.0045
3235.00,0.0045
3234.00,0.0045
3233.00,0.0045
3232.00,0.0045
3231.00,0.0045
3230.00,0.0045
3229.00,0.0045
3228.00,0.0045
3227.00,0.0045
3226.00,0.0045
3225.00,0.0044
3224.00,0.0044
3223.00,0.0044
3222.00,0.0044
3221.00,0.0044
3220.00,0.0044
3219.00,0.0045
3218.00,0.0044
3217.00,0.0044
3216.00,0.0044
3215.00,0.0044
3214.00,0.0043
3213.00,0.0043
3212.00,0.0044
3211.00,0.0044
3210.00,0.0044
3209.00,0.0044
3208.00,0.0044
3207.00,0.0044
3206.00,0.0044
3205.00,0.0044
3204.00,0.0044
3203.00,0.0044
3202.00,0.0044
3201.00,0.0044
3200.00,0.0044
3199.00,0.0044
3198.00,0.0044
3197.00,0.0044
3196.00,0.0044
3195.00,0.0044
3194.00,0.0043
3193.00,0.0044
3192.00,0.0044
3191.00,0.0044
3190.00,0.0044
3189.00,0.0044
3188.00,0.0044
3187.00,0.0044
3186.00,0.0044
3185.00,0.0044
3184.00,0.0044
3183.00,0.0044
3182.00,0.0044
3181.00,0.0044
3180.00,0.0044
3179.00,0.0043
3178.00,0.0043
3177.00,0.0043
3176.00,0.0042
3175.00,0.0042
3174.00,0.0042
3173.00,0.0043
3172.00,0.0043
3171.00,0.0043
3170.00,0.0044
3169.00,0.0044
3168.00,0.0044
3167.00,0.0044
3166.00,0.0043
3165.00,0.0043
3164.00,0.0043
3163.00,0.0043
3162.00,0.0043
3161.00,0.0043
3160.00,0.0044
3159.00,0.0043
3158.00,0.0043
3157.00,0.0043
3156.00,0.0043
3155.00,0.0042
3154.00,0.0042
3153.00,0.0042
3152.00,0.0042
3151.00,0.0042
3150.00,0.0042
3149.00,0.0042
3148.00,0.0042
3147.00,0.0042
3146.00,0.0042
3145.00,0.0042
3144.00,0.0042
3143.00,0.0042
3142.00,0.0042
3141.00,0.0042
3140.00,0.0043
3139.00,0.0043
3138.00,0.0043
3137.00,0.0043
3136.00,0.0042
3135.00,0.0042
3134.00,0.0042
3133.00,0.0041
3132.00,0.0041
3131.00,0.0042
3130.00,0.0042
3129.00,0.0041
3128.00,0.0041
3127.00,0.0041
3126.00,0.0041
3125.00,0.0041
3124.00,0.0041
3123.00,0.0041
3122.00,0.0041
3121.00,0.0041
3120.00,0.0041
3119.00,0.0042
3118.00,0.0041
3117.00,0.0041
3116.00,0.0041
3115.00,0.0040
3114.00,0.0040
3113.00,0.0041
3112.00,0.0041
3111.00,0.0040
3110.00,0.0040
3109.00,0.0040
3108.00,0.0040
3107.00,0.0040
3106.00,0.0040
3105.00,0.0040
3104.00,0.0040
3103.00,0.0040
3102.00,0.0040
3101.00,0.0040
3100.00,0.0039
3099.00,0.0039
3098.00,0.0039
3097.00,0.0039
3096.00,0.0039
3095.00,0.0039
3094.00,0.0039
3093.00,0.0039
3092.00,0.0039
3091.00,0.0040
3090.00,0.0040
3089.00,0.0040
3088.00,0.0040
3087.00,0.0040
3086.00,0.0040
3085.00,0.0039
3084.00,0.0039
3083.00,0.0039
3082.00,0.0039
3081.00,0.0039
3080.00,0.0040
3079.00,0.0040
3078.00,0.0040
3077.00,0.0039
3076.00,0.0039
3075.00,0.0038
3074.00,0.0038
3073.00,0.0038
3072.00,0.0038
3071.00,0.0038
3070.00,0.0038
3069.00,0.0038
3068.00,0.0038
3067.00,0.0038
3066.00,0.0038
3065.00,0.0038
3064.00,0.0038
3063.00,0.0038
3062.00,0.0038
3061.00,0.0038
3060.00,0.0038
3059.00,0.0038
3058.00,0.0038
3057.00,0.0037
3056.00,0.0037
3055.00,0.0037
3054.00,0.0037
3053.00,0.0037
3052.00,0.0037
3051.00,0.0037
3050.00,0.0037
3049.00,0.0037
3048.00,0.0037
3047.00,0.0037
3046.00,0.0038
3045.00,0.0038
3044.00,0.0038
3043.00,0.0037
3042.00,0.0037
3041.00,0.0037
3040.00,0.0037
3039.00,0.0037
3038.00,0.0037
3037.00,0.0036
3036.00,0.0036
3035.00,0.0036
3034.00,0.0036
3033.00,0.0036
3032.00,0.0036
3031.00,0.0036
3030.00,0.0035
3029.00,0.0035
3028.00,0.0035
3027.00,0.0035
3026.00,0.0035
3025.00,0.0035
3024.00,0.0035
3023.00,0.0035
3022.00,0.0035
3021.00,0.0034
3020.00,0.0034
3019.00,0.0034
3018.00,0.0034
3017.00,0.0034
3016.00,0.0034
3015.00,0.0034
3014.00,0.0034
3013.00,0.0034
3012.00,0.0034
3011.00,0.0033
3010.00,0.0033
3009.00,0.0032
3008.00,0.0031
3007.00,0.0031
3006.00,0.0031
3005.00,0.0031
3004.00,0.0030
3003.00,0.0030
3002.00,0.0030
3001.00,0.0030
3000.00,0.0030
2999.00,0.0030
2998.00,0.0029
2997.00,0.0028
2996.00,0.0028
2995.00,0.0028
2994.00,0.0028
2993.00,0.0027
2992.00,0.0027
2991.00,0.0027
2990.00,0.0026
2989.00,0.0026
2988.00,0.0026
2987.00,0.0026
2986.00,0.0026
2985.00,0.0025
2984.00,0.0024
2983.00,0.0023
2982.00,0.0022
2981.00,0.0021
2980.00,0.0021
2979.00,0.0021
2978.00,0.0022
2977.00,0.0022
2976.00,0.0022
2975.00,0.0023
2974.00,0.0023
2973.00,0.0022
2972.00,0.0022
2971.00,0.0021
2970.00,0.0021
2969.00,0.0021
2968.00,0.0021
2967.00,0.0021
2966.00,0.0020
2965.00,0.0020
2964.00,0.0020
2963.00,0.0020
2962.00,0.0019
2961.00,0.0019
2960.00,0.0018
2959.00,0.0018
2958.00,0.0018
2957.00,0.0018
2956.00,0.0018
2955.00,0.0018
2954.00,0.0018
2953.00,0.0018
2952.00,0.0018
2951.00,0.0019
2950.00,0.0019
2949.00,0.0019
2948.00,0.0019
2947.00,0.0019
2946.00,0.0019
2945.00,0.0019
2944.00,0.0019
2943.00,0.0019
2942.00,0.0018
2941.00,0.0018
2940.00,0.0017
2939.00,0.0016
2938.00,0.0016
2937.00,0.0015
2936.00,0.0014
2935.00,0.0013
2934.00,0.0011
2933.00,0.0010
2932.00,0.0009
2931.00,0.0008
2930.00,0.0007
2929.00,0.0006
2928.00,0.0005
2927.00,0.0004
2926.00,0.0003
2925.00,0.0003
2924.00,0.0003
2923.00,0.0002
2922.00,0.0002
2921.00,0.0002
2920.00,0.0002
2919.00,0.0002
2918.00,0.0002
2917.00,0.0002
2916.00,0.0003
2915.00,0.0005
2914.00,0.0007
2913.00,0.0009
2912.00,0.0011
2911.00,0.0012
2910.00,0.0013
2909.00,0.0014
2908.00,0.0014
2907.00,0.0015
2906.00,0.0015
2905.00,0.0016
2904.00,0.0016
2903.00,0.0017
2902.00,0.0018
2901.00,0.0018
2900.00,0.0018
2899.00,0.0018
2898.00,0.0018
2897.00,0.0018
2896.00,0.0018
2895.00,0.0019
2894.00,0.0019
2893.00,0.0019
2892.00,0.0019
2891.00,0.0019
2890.00,0.0019
2889.00,0.0019
2888.00,0.0020
2887.00,0.0020
2886.00,0.0020
2885.00,0.0020
2884.00,0.0020
2883.00,0.0020
2882.00,0.0020
2881.00,0.0021
2880.00,0.0021
2879.00,0.0021
2878.00,0.0021
2877.00,0.0021
2876.00,0.0021
2875.00,0.0021
2874.00,0.0021
2873.00,0.0020
2872.00,0.0020
2871.00,0.0019
2870.00,0.0019
2869.00,0.0019
2868.00,0.0019
2867.00,0.0019
2866.00,0.0019
2865.00,0.0019
2864.00,0.0018
2863.00,0.0018
2862.00,0.0018
2861.00,0.0017
2860.00,0.0016
2859.00,0.0015
2858.00,0.0014
2857.00,0.0014
2856.00,0.0013
2855.00,0.0012
2854.00,0.0012
2853.00,0.0012
2852.00,0.0012
2851.00,0.0012
2850.00,0.0012
2849.00,0.0013
2848.00,0.0014
2847.00,0.0016
2846.00,0.0017
2845.00,0.0018
2844.00,0.0019
2843.00,0.0020
2842.00,0.0021
2841.00,0.0021
2840.00,0.0022
2839.00,0.0022
2838.00,0.0023
2837.00,0.0023
2836.00,0.0023
2835.00,0.0023
2834.00,0.0023
2833.00,0.0024
2832.00,0.0024
2831.00,0.0024
2830.00,0.0024
2829.00,0.0024
2828.00,0.0024
2827.00,0.0024
2826.00,0.0025
2825.00,0.0025
2824.00,0.0025
2823.00,0.0025
2822.00,0.0025
2821.00,0.0025
2820.00,0.0025
2819.00,0.0025
2818.00,0.0025
2817.00,0.0025
2816.00,0.0025
2815.00,0.0025
2814.00,0.0025
2813.00,0.0025
2812.00,0.0025
2811.00,0.0025
2810.00,0.0026
2809.00,0.0026
2808.00,0.0025
2807.00,0.0025
2806.00,0.0025
2805.00,0.0025
2804.00,0.0025
2803.00,0.0025
2802.00,0.0025
2801.00,0.0025
2800.00,0.0025
2799.00,0.0025
2798.00,0.0025
2797.00,0.0025
2796.00,0.0025
2795.00,0.0025
2794.00,0.0025
2793.00,0.0025
2792.00,0.0025
2791.00,0.0025
2790.00,0.0025
2789.00,0.0025
2788.00,0.0025
2787.00,0.0025
2786.00,0.0024
2785.00,0.0024
2784.00,0.0024
2783.00,0.0025
2782.00,0.0025
2781.00,0.0025
2780.00,0.0025
2779.00,0.0025
2778.00,0.0025
2777.00,0.0025
2776.00,0.0025
2775.00,0.0024
2774.00,0.0024
2773.00,0.0025
2772.00,0.0025
2771.00,0.0025
2770.00,0.0025
2769.00,0.0026
2768.00,0.0025
2767.00,0.0025
2766.00,0.0025
2765.00,0.0025
2764.00,0.0025
2763.00,0.0025
2762.00,0.0025
2761.00,0.0025
2760.00,0.0025
2759.00,0.0025
2758.00,0.0025
2757.00,0.0025
2756.00,0.0025
2755.00,0.0026
2754.00,0.0025
2753.00,0.0025
2752.00,0.0025
2751.00,0.0025
2750.00,0.0025
2749.00,0.0025
2748.00,0.0025
2747.00,0.0025
2746.00,0.0025
2745.00,0.0025
2744.00,0.0025
2743.00,0.0025
2742.00,0.0025
2741.00,0.0025
2740.00,0.0025
2739.00,0.0025
2738.00,0.0025
2737.00,0.0025
2736.00,0.0025
2735.00,0.0025
2734.00,0.0025
2733.00,0.0025
2732.00,0.0025
2731.00,0.0025
2730.00,0.0025
2729.00,0.0025
2728.00,0.0025
2727.00,0.0025
2726.00,0.0025
2725.00,0.0025
2724.00,0.0025
2723.00,0.0025
2722.00,0.0025
2721.00,0.0025
2720.00,0.0025
2719.00,0.0025
2718.00,0.0026
2717.00,0.0026
2716.00,0.0026
2715.00,0.0026
2714.00,0.0026
2713.00,0.0025
2712.00,0.0025
2711.00,0.0025
2710.00,0.0025
2709.00,0.0025
2708.00,0.0025
2707.00,0.0025
2706.00,0.0025
2705.00,0.0025
2704.00,0.0025
2703.00,0.0025
2702.00,0.0025
2701.00,0.0025
2700.00,0.0025
2699.00,0.0025
2698.00,0.0025
2697.00,0.0026
2696.00,0.0026
2695.00,0.0026
2694.00,0.0026
2693.00,0.0026
2692.00,0.0025
2691.00,0.0025
2690.00,0.0025
2689.00,0.0025
2688.00,0.0025
2687.00,0.0025
2686.00,0.0026
2685.00,0.0026
2684.00,0.0026
2683.00,0.0026
2682.00,0.0026
2681.00,0.0026
2680.00,0.0025
2679.00,0.0025
2678.00,0.0025
2677.00,0.0026
2676.00,0.0026
2675.00,0.0026
2674.00,0.0026
2673.00,0.0026
2672.00,0.0026
2671.00,0.0026
2670.00,0.0026
2669.00,0.0026
2668.00,0.0026
2667.00,0.0026
2666.00,0.0027
2665.00,0.0027
2664.00,0.0027
2663.00,0.0027
2662.00,0.0027
2661.00,0.0027
2660.00,0.0027
2659.00,0.0027
2658.00,0.0027
2657.00,0.0028
2656.00,0.0028
2655.00,0.0028
2654.00,0.0028
2653.00,0.0029
2652.00,0.0029
2651.00,0.0028
2650.00,0.0028
2649.00,0.0028
2648.00,0.0028
2647.00,0.0028
2646.00,0.0028
2645.00,0.0029
2644.00,0.0029
2643.00,0.0029
2642.00,0.0029
2641.00,0.0029
2640.00,0.0029
2639.00,0.0029
2638.00,0.0029
2637.00,0.0029
2636.00,0.0029
2635.00,0.0029
2634.00,0.0029
2633.00,0.0028
2632.00,0.0028
2631.00,0.0028
2630.00,0.0028
2629.00,0.0029
2628.00,0.0029
2627.00,0.0029
2626.00,0.0029
2625.00,0.0028
2624.00,0.0028
2623.00,0.0029
2622.00,0.0029
2621.00,0.0029
2620.00,0.0029
2619.00,0.0029
2618.00,0.0029
2617.00,0.0029
2616.00,0.0028
2615.00,0.0028
2614.00,0.0029
2613.00,0.0029
2612.00,0.0029
2611.00,0.0029
2610.00,0.0029
2609.00,0.0029
2608.00,0.0029
2607.00,0.0030
2606.00,0.0030
2605.00,0.0030
2604.00,0.0029
2603.00,0.0029
2602.00,0.0029
2601.00,0.0029
2600.00,0.0029
2599.00,0.0028
2598.00,0.0028
2597.00,0.0028
2596.00,0.0028
2595.00,0.0028
2594.00,0.0028
2593.00,0.0028
2592.00,0.0029
2591.00,0.0029
2590.00,0.0028
2589.00,0.0028
2588.00,0.0028
2587.00,0.0028
2586.00,0.0028
2585.00,0.0028
2584.00,0.0028
2583.00,0.0029
2582.00,0.0029
2581.00,0.0030
2580.00,0.0030
2579.00,0.0030
2578.00,0.0029
2577.00,0.0029
2576.00,0.0029
2575.00,0.0029
2574.00,0.0029
2573.00,0.0029
2572.00,0.0029
2571.00,0.0029
2570.00,0.0029
2569.00,0.0029
2568.00,0.0029
2567.00,0.0030
2566.00,0.0030
2565.00,0.0029
2564.00,0.0029
2563.00,0.0029
2562.00,0.0029
2561.00,0.0028
2560.00,0.0028
2559.00,0.0028
2558.00,0.0028
2557.00,0.0028
2556.00,0.0028
2555.00,0.0028
2554.00,0.0028
2553.00,0.0029
2552.00,0.0029
2551.00,0.0029
2550.00,0.0028
2549.00,0.0029
2548.00,0.0029
2547.00,0.0029
2546.00,0.0029
2545.00,0.0029
2544.00,0.0029
2543.00,0.0029
2542.00,0.0028
2541.00,0.0028
2540.00,0.0028
2539.00,0.0028
2538.00,0.0029
2537.00,0.0029
2536.00,0.0028
2535.00,0.0028
2534.00,0.0027
2533.00,0.0027
2532.00,0.0027
2531.00,0.0027
2530.00,0.0028
2529.00,0.0028
2528.00,0.0028
2527.00,0.0028
2526.00,0.0029
2525.00,0.0029
2524.00,0.0029
2523.00,0.0028
2522.00,0.0028
2521.00,0.0028
2520.00,0.0028
2519.00,0.0028
2518.00,0.0028
2517.00,0.0028
2516.00,0.0028
2515.00,0.0028
2514.00,0.0028
2513.00,0.0028
2512.00,0.0028
2511.00,0.0028
2510.00,0.0027
2509.00,0.0027
2508.00,0.0027
2507.00,0.0028
2506.00,0.0028
2505.00,0.0028
2504.00,0.0028
2503.00,0.0028
2502.00,0.0028
2501.00,0.0027
2500.00,0.0027
2499.00,0.0027
2498.00,0.0028
2497.00,0.0028
2496.00,0.0029
2495.00,0.0029
2494.00,0.0029
2493.00,0.0028
2492.00,0.0028
2491.00,0.0028
2490.00,0.0028
2489.00,0.0027
2488.00,0.0027
2487.00,0.0027
2486.00,0.0027
2485.00,0.0027
2484.00,0.0027
2483.00,0.0027
2482.00,0.0027
2481.00,0.0027
2480.00,0.0027
2479.00,0.0028
2478.00,0.0028
2477.00,0.0028
2476.00,0.0028
2475.00,0.0028
2474.00,0.0028
2473.00,0.0028
2472.00,0.0028
2471.00,0.0028
2470.00,0.0028
2469.00,0.0028
2468.00,0.0028
2467.00,0.0028
2466.00,0.0028
2465.00,0.0028
2464.00,0.0028
2463.00,0.0028
2462.00,0.0028
2461.00,0.0028
2460.00,0.0028
2459.00,0.0028
2458.00,0.0028
2457.00,0.0028
2456.00,0.0028
2455.00,0.0028
2454.00,0.0028
2453.00,0.0028
2452.00,0.0028
2451.00,0.0028
2450.00,0.0028
2449.00,0.0028
2448.00,0.0028
2447.00,0.0028
2446.00,0.0027
2445.00,0.0027
2444.00,0.0026
2443.00,0.0026
2442.00,0.0027
2441.00,0.0027
2440.00,0.0028
2439.00,0.0028
2438.00,0.0028
2437.00,0.0027
2436.00,0.0027
2435.00,0.0026
2434.00,0.0026
2433.00,0.0026
2432.00,0.0026
2431.00,0.0026
2430.00,0.0026
2429.00,0.0026
2428.00,0.0026
2427.00,0.0026
2426.00,0.0026
2425.00,0.0026
2424.00,0.0026
2423.00,0.0026
2422.00,0.0026
2421.00,0.0026
2420.00,0.0026
2419.00,0.0026
2418.00,0.0026
2417.00,0.0026
2416.00,0.0026
2415.00,0.0026
2414.00,0.0026
2413.00,0.0027
2412.00,0.0026
2411.00,0.0026
2410.00,0.0025
2409.00,0.0025
2408.00,0.0025
2407.00,0.0025
2406.00,0.0025
2405.00,0.0026
2404.00,0.0026
2403.00,0.0026
2402.00,0.0026
2401.00,0.0025
2400.00,0.0025
2399.00,0.0025
2398.00,0.0025
2397.00,0.0025
2396.00,0.0025
2395.00,0.0025
2394.00,0.0025
2393.00,0.0025
2392.00,0.0025
2391.00,0.0025
2390.00,0.0025
2389.00,0.0025
2388.00,0.0025
2387.00,0.0024
2386.00,0.0024
2385.00,0.0023
2384.00,0.0023
2383.00,0.0022
2382.00,0.0022
2381.00,0.0022
2380.00,0.0022
2379.00,0.0022
2378.00,0.0022
2377.00,0.0022
2376.00,0.0022
2375.00,0.0023
2374.00,0.0023
2373.00,0.0023
2372.00,0.0023
2371.00,0.0023
2370.00,0.0024
2369.00,0.0025
2368.00,0.0026
2367.00,0.0026
2366.00,0.0025
2365.00,0.0024
2364.00,0.0024
2363.00,0.0024
2362.00,0.0025
2361.00,0.0025
2360.00,0.0026
2359.00,0.0027
2358.00,0.0027
2357.00,0.0027
2356.00,0.0029
2355.00,0.0029
2354.00,0.0028
2353.00,0.0026
2352.00,0.0025
2351.00,0.0027
2350.00,0.0029
2349.00,0.0030
2348.00,0.0029
2347.00,0.0026
2346.00,0.0025
2345.00,0.0025
2344.00,0.0026
2343.00,0.0027
2342.00,0.0027
2341.00,0.0027
2340.00,0.0027
2339.00,0.0027
2338.00,0.0027
2337.00,0.0026
2336.00,0.0026
2335.00,0.0025
2334.00,0.0025
2333.00,0.0025
2332.00,0.0025
2331.00,0.0026
2330.00,0.0026
2329.00,0.0027
2328.00,0.0028
2327.00,0.0029
2326.00,0.0030
2325.00,0.0031
2324.00,0.0030
2323.00,0.0030
2322.00,0.0030
2321.00,0.0030
2320.00,0.0030
2319.00,0.0030
2318.00,0.0030
2317.00,0.0030
2316.00,0.0030
2315.00,0.0029
2314.00,0.0029
2313.00,0.0028
2312.00,0.0028
2311.00,0.0029
2310.00,0.0029
2309.00,0.0030
2308.00,0.0030
2307.00,0.0031
2306.00,0.0030
2305.00,0.0030
2304.00,0.0029
2303.00,0.0028
2302.00,0.0028
2301.00,0.0027
2300.00,0.0027
2299.00,0.0027
2298.00,0.0028
2297.00,0.0028
2296.00,0.0028
2295.00,0.0027
2294.00,0.0027
2293.00,0.0027
2292.00,0.0028
2291.00,0.0029
2290.00,0.0030
2289.00,0.0031
2288.00,0.0031
2287.00,0.0031
2286.00,0.0030
2285.00,0.0030
2284.00,0.0029
2283.00,0.0028
2282.00,0.0028
2281.00,0.0027
2280.00,0.0027
2279.00,0.0027
2278.00,0.0027
2277.00,0.0026
2276.00,0.0026
2275.00,0.0026
2274.00,0.0026
2273.00,0.0026
2272.00,0.0026
2271.00,0.0026
2270.00,0.0026
2269.00,0.0027
2268.00,0.0027
2267.00,0.0027
2266.00,0.0028
2265.00,0.0029
2264.00,0.0029
2263.00,0.0029
2262.00,0.0028
2261.00,0.0028
2260.00,0.0028
2259.00,0.0028
2258.00,0.0028
2257.00,0.0027
2256.00,0.0026
2255.00,0.0026
2254.00,0.0026
2253.00,0.0027
2252.00,0.0027
2251.00,0.0028
2250.00,0.0028
2249.00,0.0027
2248.00,0.0026
2247.00,0.0025
2246.00,0.0024
2245.00,0.0024
2244.00,0.0025
2243.00,0.0025
2242.00,0.0026
2241.00,0.0027
2240.00,0.0027
2239.00,0.0027
2238.00,0.0027
2237.00,0.0027
2236.00,0.0026
2235.00,0.0027
2234.00,0.0027
2233.00,0.0028
2232.00,0.0029
2231.00,0.0029
2230.00,0.0029
2229.00,0.0029
2228.00,0.0030
2227.00,0.0029
2226.00,0.0028
2225.00,0.0027
2224.00,0.0026
2223.00,0.0025
2222.00,0.0025
2221.00,0.0026
2220.00,0.0026
2219.00,0.0026
2218.00,0.0026
2217.00,0.0026
2216.00,0.0026
2215.00,0.0027
2214.00,0.0028
2213.00,0.0029
2212.00,0.0029
2211.00,0.0029
2210.00,0.0028
2209.00,0.0027
2208.00,0.0026
2207.00,0.0026
2206.00,0.0025
2205.00,0.0025
2204.00,0.0024
2203.00,0.0024
2202.00,0.0026
2201.00,0.0027
2200.00,0.0028
2199.00,0.0030
2198.00,0.0031
2197.00,0.0031
2196.00,0.0030
2195.00,0.0030
2194.00,0.0029
2193.00,0.0029
2192.00,0.0028
2191.00,0.0028
2190.00,0.0027
2189.00,0.0028
2188.00,0.0029
2187.00,0.0030
2186.00,0.0031
2185.00,0.0030
2184.00,0.0029
2183.00,0.0028
2182.00,0.0027
2181.00,0.0028
2180.00,0.0028
2179.00,0.0028
2178.00,0.0027
2177.00,0.0026
2176.00,0.0026
2175.00,0.0026
2174.00,0.0027
2173.00,0.0029
2172.00,0.0031
2171.00,0.0033
2170.00,0.0035
2169.00,0.0036
2168.00,0.0036
2167.00,0.0035
2166.00,0.0034
2165.00,0.0034
2164.00,0.0034
2163.00,0.0034
2162.00,0.0032
2161.00,0.0028
2160.00,0.0024
2159.00,0.0022
2158.00,0.0022
2157.00,0.0023
2156.00,0.0024
2155.00,0.0024
2154.00,0.0024
2153.00,0.0023
2152.00,0.0022
2151.00,0.0021
2150.00,0.0020
2149.00,0.0020
2148.00,0.0020
2147.00,0.0022
2146.00,0.0022
2145.00,0.0023
2144.00,0.0023
2143.00,0.0024
2142.00,0.0024
2141.00,0.0024
2140.00,0.0024
2139.00,0.0024
2138.00,0.0025
2137.00,0.0024
2136.00,0.0022
2135.00,0.0020
2134.00,0.0019
2133.00,0.0020
2132.00,0.0021
2131.00,0.0022
2130.00,0.0023
2129.00,0.0023
2128.00,0.0023
2127.00,0.0024
2126.00,0.0024
2125.00,0.0025
2124.00,0.0025
2123.00,0.0025
2122.00,0.0025
2121.00,0.0025
2120.00,0.0026
2119.00,0.0027
2118.00,0.0028
2117.00,0.0028
2116.00,0.0028
2115.00,0.0027
2114.00,0.0027
2113.00,0.0027
2112.00,0.0028
2111.00,0.0029
2110.00,0.0029
2109.00,0.0028
2108.00,0.0028
2107.00,0.0027
2106.00,0.0026
2105.00,0.0026
2104.00,0.0026
2103.00,0.0026
2102.00,0.0026
2101.00,0.0027
2100.00,0.0027
2099.00,0.0027
2098.00,0.0027
2097.00,0.0027
2096.00,0.0027
2095.00,0.0026
2094.00,0.0026
2093.00,0.0026
2092.00,0.0026
2091.00,0.0026
2090.00,0.0025
2089.00,0.0025
2088.00,0.0024
2087.00,0.0025
2086.00,0.0025
2085.00,0.0026
2084.00,0.0026
2083.00,0.0025
2082.00,0.0025
2081.00,0.0024
2080.00,0.0025
2079.00,0.0026
2078.00,0.0028
2077.00,0.0029
2076.00,0.0029
2075.00,0.0029
2074.00,0.0029
2073.00,0.0029
2072.00,0.0029
2071.00,0.0029
2070.00,0.0028
2069.00,0.0028
2068.00,0.0027
2067.00,0.0026
2066.00,0.0026
2065.00,0.0025
2064.00,0.0024
2063.00,0.0024
2062.00,0.0025
2061.00,0.0026
2060.00,0.0026
2059.00,0.0027
2058.00,0.0027
2057.00,0.0028
2056.00,0.0029
2055.00,0.0029
2054.00,0.0029
2053.00,0.0030
2052.00,0.0031
2051.00,0.0032
2050.00,0.0032
2049.00,0.0031
2048.00,0.0030
2047.00,0.0030
2046.00,0.0031
2045.00,0.0032
2044.00,0.0032
2043.00,0.0032
2042.00,0.0031
2041.00,0.0030
2040.00,0.0030
2039.00,0.0031
2038.00,0.0033
2037.00,0.0035
2036.00,0.0035
2035.00,0.0035
2034.00,0.0034
2033.00,0.0033
2032.00,0.0033
2031.00,0.0033
2030.00,0.0034
2029.00,0.0034
2028.00,0.0033
2027.00,0.0032
2026.00,0.0031
2025.00,0.0031
2024.00,0.0031
2023.00,0.0032
2022.00,0.0032
2021.00,0.0032
2020.00,0.0031
2019.00,0.0030
2018.00,0.0029
2017.00,0.0029
2016.00,0.0029
2015.00,0.0029
2014.00,0.0030
2013.00,0.0031
2012.00,0.0031
2011.00,0.0031
2010.00,0.0031
2009.00,0.0031
2008.00,0.0031
2007.00,0.0030
2006.00,0.0031
2005.00,0.0030
2004.00,0.0030
2003.00,0.0028
2002.00,0.0027
2001.00,0.0027
2000.00,0.0027
1999.00,0.0028
1998.00,0.0029
1997.00,0.0030
1996.00,0.0031
1995.00,0.0032
1994.00,0.0032
1993.00,0.0033
1992.00,0.0033
1991.00,0.0033
1990.00,0.0034
1989.00,0.0035
1988.00,0.0035
1987.00,0.0034
1986.00,0.0033
1985.00,0.0034
1984.00,0.0035
1983.00,0.0036
1982.00,0.0038
1981.00,0.0039
1980.00,0.0038
1979.00,0.0036
1978.00,0.0033
1977.00,0.0030
1976.00,0.0029
1975.00,0.0029
1974.00,0.0029
1973.00,0.0030
1972.00,0.0031
1971.00,0.0031
1970.00,0.0031
1969.00,0.0031
1968.00,0.0031
1967.00,0.0031
1966.00,0.0031
1965.00,0.0030
1964.00,0.0030
1963.00,0.0030
1962.00,0.0029
1961.00,0.0027
1960.00,0.0026
1959.00,0.0024
1958.00,0.0024
1957.00,0.0025
1956.00,0.0027
1955.00,0.0028
1954.00,0.0029
1953.00,0.0028
1952.00,0.0026
1951.00,0.0025
1950.00,0.0025
1949.00,0.0026
1948.00,0.0028
1947.00,0.0029
1946.00,0.0029
1945.00,0.0029
1944.00,0.0029
1943.00,0.0028
1942.00,0.0027
1941.00,0.0026
1940.00,0.0025
1939.00,0.0024
1938.00,0.0024
1937.00,0.0024
1936.00,0.0025
1935.00,0.0026
1934.00,0.0026
1933.00,0.0026
1932.00,0.0026
1931.00,0.0026
1930.00,0.0025
1929.00,0.0025
1928.00,0.0026
1927.00,0.0026
1926.00,0.0026
1925.00,0.0026
1924.00,0.0026
1923.00,0.0026
1922.00,0.0026
1921.00,0.0026
1920.00,0.0026
1919.00,0.0026
1918.00,0.0025
1917.00,0.0025
1916.00,0.0024
1915.00,0.0024
1914.00,0.0025
1913.00,0.0024
1912.00,0.0024
1911.00,0.0024
1910.00,0.0024
1909.00,0.0024
1908.00,0.0025
1907.00,0.0025
1906.00,0.0025
1905.00,0.0024
1904.00,0.0024
1903.00,0.0023
1902.00,0.0022
1901.00,0.0022
1900.00,0.0022
1899.00,0.0022
1898.00,0.0023
1897.00,0.0023
1896.00,0.0022
1895.00,0.0022
1894.00,0.0023
1893.00,0.0023
1892.00,0.0023
1891.00,0.0023
1890.00,0.0023
1889.00,0.0023
1888.00,0.0022
1887.00,0.0022
1886.00,0.0022
1885.00,0.0022
1884.00,0.0022
1883.00,0.0022
1882.00,0.0022
1881.00,0.0022
1880.00,0.0022
1879.00,0.0021
1878.00,0.0021
1877.00,0.0021
1876.00,0.0022
1875.00,0.0022
1874.00,0.0022
1873.00,0.0022
1872.00,0.0022
1871.00,0.0023
1870.00,0.0023
1869.00,0.0023
1868.00,0.0023
1867.00,0.0023
1866.00,0.0023
1865.00,0.0023
1864.00,0.0022
1863.00,0.0022
1862.00,0.0021
1861.00,0.0021
1860.00,0.0020
1859.00,0.0020
1858.00,0.0021
1857.00,0.0021
1856.00,0.0022
1855.00,0.0022
1854.00,0.0021
1853.00,0.0021
1852.00,0.0021
1851.00,0.0021
1850.00,0.0022
1849.00,0.0022
1848.00,0.0022
1847.00,0.0022
1846.00,0.0022
1845.00,0.0021
1844.00,0.0021
1843.00,0.0021
1842.00,0.0021
1841.00,0.0021
1840.00,0.0021
1839.00,0.0021
1838.00,0.0020
1837.00,0.0020
1836.00,0.0020
1835.00,0.0020
1834.00,0.0020
1833.00,0.0021
1832.00,0.0021
1831.00,0.0021
1830.00,0.0021
1829.00,0.0021
1828.00,0.0020
1827.00,0.0019
1826.00,0.0019
1825.00,0.0019
1824.00,0.0019
1823.00,0.0019
1822.00,0.0020
1821.00,0.0020
1820.00,0.0020
1819.00,0.0019
1818.00,0.0019
1817.00,0.0018
1816.00,0.0018
1815.00,0.0018
1814.00,0.0019
1813.00,0.0018
1812.00,0.0018
1811.00,0.0017
1810.00,0.0017
1809.00,0.0018
1808.00,0.0018
1807.00,0.0018
1806.00,0.0018
1805.00,0.0019
1804.00,0.0019
1803.00,0.0018
1802.00,0.0018
1801.00,0.0018
1800.00,0.0018
1799.00,0.0019
1798.00,0.0019
1797.00,0.0020
1796.00,0.0020
1795.00,0.0020
1794.00,0.0020
1793.00,0.0019
1792.00,0.0019
1791.00,0.0018
1790.00,0.0018
1789.00,0.0018
1788.00,0.0018
1787.00,0.0018
1786.00,0.0018
1785.00,0.0018
1784.00,0.0018
1783.00,0.0018
1782.00,0.0017
1781.00,0.0017
1780.00,0.0018
1779.00,0.0018
1778.00,0.0018
1777.00,0.0018
1776.00,0.0019
1775.00,0.0019
1774.00,0.0019
1773.00,0.0019
1772.00,0.0018
1771.00,0.0018
1770.00,0.0018
1769.00,0.0018
1768.00,0.0018
1767.00,0.0017
1766.00,0.0017
1765.00,0.0017
1764.00,0.0017
1763.00,0.0016
1762.00,0.0016
1761.00,0.0017
1760.00,0.0017
1759.00,0.0017
1758.00,0.0016
1757.00,0.0015
1756.00,0.0015
1755.00,0.0015
1754.00,0.0015
1753.00,0.0015
1752.00,0.0015
1751.00,0.0016
1750.00,0.0016
1749.00,0.0016
1748.00,0.0015
1747.00,0.0014
1746.00,0.0014
1745.00,0.0013
1744.00,0.0013
1743.00,0.0012
1742.00,0.0012
1741.00,0.0013
1740.00,0.0013
1739.00,0.0014
1738.00,0.0014
1737.00,0.0015
1736.00,0.0015
1735.00,0.0016
1734.00,0.0016
1733.00,0.0016
1732.00,0.0015
1731.00,0.0015
1730.00,0.0014
1729.00,0.0013
1728.00,0.0014
1727.00,0.0014
1726.00,0.0014
1725.00,0.0015
1724.00,0.0015
1723.00,0.0015
1722.00,0.0015
1721.00,0.0015
1720.00,0.0014
1719.00,0.0014
1718.00,0.0014
1717.00,0.0015
1716.00,0.0015
1715.00,0.0014
1714.00,0.0014
1713.00,0.0014
1712.00,0.0015
1711.00,0.0015
1710.00,0.0015
1709.00,0.0015
1708.00,0.0015
1707.00,0.0015
1706.00,0.0015
1705.00,0.0016
1704.00,0.0016
1703.00,0.0017
1702.00,0.0017
1701.00,0.0018
1700.00,0.0020
1699.00,0.0020
1698.00,0.0019
1697.00,0.0018
1696.00,0.0017
1695.00,0.0017
1694.00,0.0017
1693.00,0.0017
1692.00,0.0017
1691.00,0.0017
1690.00,0.0017
1689.00,0.0017
1688.00,0.0017
1687.00,0.0017
1686.00,0.0016
1685.00,0.0015
1684.00,0.0014
1683.00,0.0015
1682.00,0.0015
1681.00,0.0016
1680.00,0.0016
1679.00,0.0016
1678.00,0.0017
1677.00,0.0017
1676.00,0.0017
1675.00,0.0017
1674.00,0.0017
1673.00,0.0017
1672.00,0.0017
1671.00,0.0017
1670.00,0.0017
1669.00,0.0017
1668.00,0.0017
1667.00,0.0017
1666.00,0.0017
1665.00,0.0017
1664.00,0.0017
1663.00,0.0017
1662.00,0.0017
1661.00,0.0016
1660.00,0.0016
1659.00,0.0017
1658.00,0.0017
1657.00,0.0016
1656.00,0.0015
1655.00,0.0014
1654.00,0.0014
1653.00,0.0015
1652.00,0.0015
1651.00,0.0016
1650.00,0.0016
1649.00,0.0016
1648.00,0.0017
1647.00,0.0017
1646.00,0.0017
1645.00,0.0017
1644.00,0.0017
1643.00,0.0017
1642.00,0.0017
1641.00,0.0017
1640.00,0.0016
1639.00,0.0016
1638.00,0.0016
1637.00,0.0016
1636.00,0.0016
1635.00,0.0016
1634.00,0.0016
1633.00,0.0016
1632.00,0.0016
1631.00,0.0016
1630.00,0.0015
1629.00,0.0015
1628.00,0.0015
1627.00,0.0015
1626.00,0.0015
1625.00,0.0015
1624.00,0.0016
1623.00,0.0016
1622.00,0.0016
1621.00,0.0016
1620.00,0.0016
1619.00,0.0016
1618.00,0.0017
1617.00,0.0017
1616.00,0.0017
1615.00,0.0017
1614.00,0.0017
1613.00,0.0017
1612.00,0.0017
1611.00,0.0018
1610.00,0.0018
1609.00,0.0019
1608.00,0.0018
1607.00,0.0018
1606.00,0.0018
1605.00,0.0018
1604.00,0.0017
1603.00,0.0017
1602.00,0.0017
1601.00,0.0017
1600.00,0.0017
1599.00,0.0017
1598.00,0.0017
1597.00,0.0017
1596.00,0.0017
1595.00,0.0017
1594.00,0.0017
1593.00,0.0017
1592.00,0.0017
1591.00,0.0016
1590.00,0.0016
1589.00,0.0016
1588.00,0.0016
1587.00,0.0016
1586.00,0.0016
1585.00,0.0016
1584.00,0.0016
1583.00,0.0016
1582.00,0.0016
1581.00,0.0016
1580.00,0.0016
1579.00,0.0016
1578.00,0.0017
1577.00,0.0017
1576.00,0.0017
1575.00,0.0017
1574.00,0.0017
1573.00,0.0016
1572.00,0.0016
1571.00,0.0017
1570.00,0.0017
1569.00,0.0017
1568.00,0.0017
1567.00,0.0017
1566.00,0.0017
1565.00,0.0017
1564.00,0.0017
1563.00,0.0017
1562.00,0.0016
1561.00,0.0015
1560.00,0.0015
1559.00,0.0018
1558.00,0.0019
1557.00,0.0019
1556.00,0.0019
1555.00,0.0018
1554.00,0.0017
1553.00,0.0017
1552.00,0.0016
1551.00,0.0016
1550.00,0.0016
1549.00,0.0015
1548.00,0.0016
1547.00,0.0016
1546.00,0.0016
1545.00,0.0016
1544.00,0.0017
1543.00,0.0017
1542.00,0.0017
1541.00,0.0016
1540.00,0.0013
1539.00,0.0010
1538.00,0.0011
1537.00,0.0012
1536.00,0.0013
1535.00,0.0013
1534.00,0.0014
1533.00,0.0014
1532.00,0.0014
1531.00,0.0015
1530.00,0.0016
1529.00,0.0017
1528.00,0.0017
1527.00,0.0017
1526.00,0.0018
1525.00,0.0019
1524.00,0.0019
1523.00,0.0020
1522.00,0.0020
1521.00,0.0019
1520.00,0.0018
1519.00,0.0018
1518.00,0.0017
1517.00,0.0017
1516.00,0.0017
1515.00,0.0017
1514.00,0.0018
1513.00,0.0018
1512.00,0.0018
1511.00,0.0019
1510.00,0.0018
1509.00,0.0018
1508.00,0.0018
1507.00,0.0016
1506.00,0.0014
1505.00,0.0014
1504.00,0.0015
1503.00,0.0015
1502.00,0.0015
1501.00,0.0015
1500.00,0.0016
1499.00,0.0016
1498.00,0.0015
1497.00,0.0015
1496.00,0.0015
1495.00,0.0015
1494.00,0.0016
1493.00,0.0017
1492.00,0.0017
1491.00,0.0017
1490.00,0.0017
1489.00,0.0016
1488.00,0.0015
1487.00,0.0014
1486.00,0.0014
1485.00,0.0014
1484.00,0.0014
1483.00,0.0014
1482.00,0.0014
1481.00,0.0014
1480.00,0.0015
1479.00,0.0014
1478.00,0.0014
1477.00,0.0014
1476.00,0.0014
1475.00,0.0015
1474.00,0.0015
1473.00,0.0015
1472.00,0.0014
1471.00,0.0012
1470.00,0.0011
1469.00,0.0011
1468.00,0.0011
1467.00,0.0011
1466.00,0.0011
1465.00,0.0011
1464.00,0.0011
1463.00,0.0010
1462.00,0.0010
1461.00,0.0010
1460.00,0.0010
1459.00,0.0010
1458.00,0.0011
1457.00,0.0011
1456.00,0.0011
1455.00,0.0011
1454.00,0.0011
1453.00,0.0012
1452.00,0.0012
1451.00,0.0013
1450.00,0.0013
1449.00,0.0014
1448.00,0.0015
1447.00,0.0015
1446.00,0.0015
1445.00,0.0015
1444.00,0.0015
1443.00,0.0014
1442.00,0.0014
1441.00,0.0015
1440.00,0.0015
1439.00,0.0015
1438.00,0.0015
1437.00,0.0015
1436.00,0.0016
1435.00,0.0016
1434.00,0.0016
1433.00,0.0016
1432.00,0.0016
1431.00,0.0016
1430.00,0.0016
1429.00,0.0016
1428.00,0.0016
1427.00,0.0016
1426.00,0.0016
1425.00,0.0016
1424.00,0.0015
1423.00,0.0015
1422.00,0.0014
1421.00,0.0014
1420.00,0.0014
1419.00,0.0014
1418.00,0.0015
1417.00,0.0015
1416.00,0.0015
1415.00,0.0016
1414.00,0.0016
1413.00,0.0016
1412.00,0.0015
1411.00,0.0015
1410.00,0.0015
1409.00,0.0015
1408.00,0.0015
1407.00,0.0015
1406.00,0.0015
1405.00,0.0014
1404.00,0.0014
1403.00,0.0014
1402.00,0.0014
1401.00,0.0014
1400.00,0.0014
1399.00,0.0015
1398.00,0.0015
1397.00,0.0015
1396.00,0.0014
1395.00,0.0014
1394.00,0.0013
1393.00,0.0014
1392.00,0.0014
1391.00,0.0014
1390.00,0.0014
1389.00,0.0014
1388.00,0.0014
1387.00,0.0014
1386.00,0.0014
1385.00,0.0014
1384.00,0.0014
1383.00,0.0015
1382.00,0.0015
1381.00,0.0015
1380.00,0.0015
1379.00,0.0014
1378.00,0.0014
1377.00,0.0014
1376.00,0.0014
1375.00,0.0015
1374.00,0.0016
1373.00,0.0016
1372.00,0.0016
1371.00,0.0016
1370.00,0.0016
1369.00,0.0016
1368.00,0.0017
1367.00,0.0017
1366.00,0.0017
1365.00,0.0017
1364.00,0.0017
1363.00,0.0017
1362.00,0.0017
1361.00,0.0017
1360.00,0.0017
1359.00,0.0016
1358.00,0.0016
1357.00,0.0016
1356.00,0.0016
1355.00,0.0016
1354.00,0.0016
1353.00,0.0016
1352.00,0.0017
1351.00,0.0017
1350.00,0.0017
1349.00,0.0017
1348.00,0.0017
1347.00,0.0017
1346.00,0.0017
1345.00,0.0016
1344.00,0.0016
1343.00,0.0017
1342.00,0.0017
1341.00,0.0017
1340.00,0.0017
1339.00,0.0016
1338.00,0.0016
1337.00,0.0016
1336.00,0.0016
1335.00,0.0016
1334.00,0.0016
1333.00,0.0016
1332.00,0.0016
1331.00,0.0016
1330.00,0.0016
1329.00,0.0016
1328.00,0.0016
1327.00,0.0016
1326.00,0.0016
1325.00,0.0016
1324.00,0.0016
1323.00,0.0016
1322.00,0.0017
1321.00,0.0017
1320.00,0.0017
1319.00,0.0016
1318.00,0.0016
1317.00,0.0016
1316.00,0.0016
1315.00,0.0017
1314.00,0.0018
1313.00,0.0018
1312.00,0.0018
1311.00,0.0018
1310.00,0.0017
1309.00,0.0017
1308.00,0.0017
1307.00,0.0017
1306.00,0.0017
1305.00,0.0017
1304.00,0.0017
1303.00,0.0017
1302.00,0.0017
1301.00,0.0017
1300.00,0.0017
1299.00,0.0017
1298.00,0.0017
1297.00,0.0017
1296.00,0.0017
1295.00,0.0017
1294.00,0.0017
1293.00,0.0017
1292.00,0.0017
1291.00,0.0017
1290.00,0.0017
1289.00,0.0017
1288.00,0.0017
1287.00,0.0017
1286.00,0.0016
1285.00,0.0016
1284.00,0.0016
1283.00,0.0016
1282.00,0.0016
1281.00,0.0017
1280.00,0.0017
1279.00,0.0017
1278.00,0.0017
1277.00,0.0017
1276.00,0.0017
1275.00,0.0017
1274.00,0.0017
1273.00,0.0017
1272.00,0.0017
1271.00,0.0017
1270.00,0.0017
1269.00,0.0017
1268.00,0.0017
1267.00,0.0017
1266.00,0.0016
1265.00,0.0016
1264.00,0.0016
1263.00,0.0016
1262.00,0.0016
1261.00,0.0016
1260.00,0.0016
1259.00,0.0016
1258.00,0.0016
1257.00,0.0016
1256.00,0.0016
1255.00,0.0016
1254.00,0.0015
1253.00,0.0015
1252.00,0.0015
1251.00,0.0015
1250.00,0.0015
1249.00,0.0015
1248.00,0.0016
1247.00,0.0016
1246.00,0.0016
1245.00,0.0016
1244.00,0.0016
1243.00,0.0016
1242.00,0.0017
1241.00,0.0017
1240.00,0.0017
1239.00,0.0017
1238.00,0.0017
1237.00,0.0017
1236.00,0.0016
1235.00,0.0016
1234.00,0.0017
1233.00,0.0017
1232.00,0.0017
1231.00,0.0017
1230.00,0.0017
1229.00,0.0018
1228.00,0.0018
1227.00,0.0019
1226.00,0.0019
1225.00,0.0019
1224.00,0.0019
1223.00,0.0019
1222.00,0.0019
1221.00,0.0020
1220.00,0.0020
1219.00,0.0019
1218.00,0.0019
1217.00,0.0018
1216.00,0.0018
1215.00,0.0018
1214.00,0.0018
1213.00,0.0018
1212.00,0.0018
1211.00,0.0018
1210.00,0.0018
1209.00,0.0018
1208.00,0.0018
1207.00,0.0018
1206.00,0.0018
1205.00,0.0018
1204.00,0.0019
1203.00,0.0019
1202.00,0.0019
1201.00,0.0019
1200.00,0.0019
1199.00,0.0019
1198.00,0.0019
1197.00,0.0019
1196.00,0.0019
1195.00,0.0019
1194.00,0.0019
1193.00,0.0018
1192.00,0.0018
1191.00,0.0017
1190.00,0.0017
1189.00,0.0017
1188.00,0.0018
1187.00,0.0018
1186.00,0.0018
1185.00,0.0018
1184.00,0.0018
1183.00,0.0018
1182.00,0.0017
1181.00,0.0017
1180.00,0.0018
1179.00,0.0019
1178.00,0.0020
1177.00,0.0020
1176.00,0.0019
1175.00,0.0019
1174.00,0.0018
1173.00,0.0018
1172.00,0.0018
1171.00,0.0018
1170.00,0.0018
1169.00,0.0018
1168.00,0.0018
1167.00,0.0018
1166.00,0.0018
1165.00,0.0017
1164.00,0.0017
1163.00,0.0017
1162.00,0.0017
1161.00,0.0017
1160.00,0.0017
1159.00,0.0016
1158.00,0.0016
1157.00,0.0016
1156.00,0.0016
1155.00,0.0017
1154.00,0.0016
1153.00,0.0016
1152.00,0.0016
1151.00,0.0016
1150.00,0.0016
1149.00,0.0016
1148.00,0.0016
1147.00,0.0016
1146.00,0.0017
1145.00,0.0017
1144.00,0.0017
1143.00,0.0018
1142.00,0.0017
1141.00,0.0017
1140.00,0.0017
1139.00,0.0017
1138.00,0.0017
1137.00,0.0016
1136.00,0.0016
1135.00,0.0016
1134.00,0.0017
1133.00,0.0016
1132.00,0.0016
1131.00,0.0016
1130.00,0.0016
1129.00,0.0017
1128.00,0.0017
1127.00,0.0017
1126.00,0.0016
1125.00,0.0016
1124.00,0.0016
1123.00,0.0017
1122.00,0.0018
1121.00,0.0019
1120.00,0.0019
1119.00,0.0018
1118.00,0.0018
1117.00,0.0019
1116.00,0.0020
1115.00,0.0020
1114.00,0.0020
1113.00,0.0019
1112.00,0.0019
1111.00,0.0019
1110.00,0.0020
1109.00,0.0020
1108.00,0.0021
1107.00,0.0021
1106.00,0.0020
1105.00,0.0020
1104.00,0.0019
1103.00,0.0019
1102.00,0.0020
1101.00,0.0020
1100.00,0.0020
1099.00,0.0019
1098.00,0.0018
1097.00,0.0017
1096.00,0.0017
1095.00,0.0018
1094.00,0.0019
1093.00,0.0019
1092.00,0.0020
1091.00,0.0019
1090.00,0.0019
1089.00,0.0018
1088.00,0.0018
1087.00,0.0018
1086.00,0.0018
1085.00,0.0019
1084.00,0.0019
1083.00,0.0020
1082.00,0.0019
1081.00,0.0019
1080.00,0.0019
1079.00,0.0019
1078.00,0.0019
1077.00,0.0019
1076.00,0.0020
1075.00,0.0020
1074.00,0.0021
1073.00,0.0021
1072.00,0.0021
1071.00,0.0020
1070.00,0.0020
1069.00,0.0021
1068.00,0.0022
1067.00,0.0022
1066.00,0.0023
1065.00,0.0023
1064.00,0.0024
1063.00,0.0025
1062.00,0.0025
1061.00,0.0024
1060.00,0.0024
1059.00,0.0024
1058.00,0.0023
1057.00,0.0023
1056.00,0.0023
1055.00,0.0024
1054.00,0.0024
1053.00,0.0024
1052.00,0.0025
1051.00,0.0026
1050.00,0.0027
1049.00,0.0027
1048.00,0.0027
1047.00,0.0027
1046.00,0.0027
1045.00,0.0028
1044.00,0.0027
1043.00,0.0027
1042.00,0.0026
1041.00,0.0026
1040.00,0.0025
1039.00,0.0024
1038.00,0.0024
1037.00,0.0025
1036.00,0.0026
1035.00,0.0027
1034.00,0.0027
1033.00,0.0027
1032.00,0.0026
1031.00,0.0026
1030.00,0.0027
1029.00,0.0026
1028.00,0.0026
1027.00,0.0025
1026.00,0.0024
1025.00,0.0024
1024.00,0.0024
1023.00,0.0025
1022.00,0.0026
1021.00,0.0027
1020.00,0.0027
1019.00,0.0028
1018.00,0.0028
1017.00,0.0028
1016.00,0.0027
1015.00,0.0027
1014.00,0.0027
1013.00,0.0027
1012.00,0.0027
1011.00,0.0027
1010.00,0.0028
1009.00,0.0028
1008.00,0.0028
1007.00,0.0027
1006.00,0.0026
1005.00,0.0025
1004.00,0.0024
1003.00,0.0024
1002.00,0.0025
1001.00,0.0026
1000.00,0.0026
999.00,0.0026
998.00,0.0026
997.00,0.0026
996.00,0.0025
995.00,0.0025
994.00,0.0025
993.00,0.0025
992.00,0.0026
991.00,0.0026
990.00,0.0026
989.00,0.0026
988.00,0.0026
987.00,0.0026
986.00,0.0026
985.00,0.0026
984.00,0.0026
983.00,0.0027
982.00,0.0027
981.00,0.0027
980.00,0.0027
979.00,0.0027
978.00,0.0026
977.00,0.0025
976.00,0.0025
975.00,0.0025
974.00,0.0025
973.00,0.0024
972.00,0.0023
971.00,0.0023
970.00,0.0023
969.00,0.0023
968.00,0.0023
967.00,0.0023
966.00,0.0022
965.00,0.0022
964.00,0.0022
963.00,0.0022
962.00,0.0022
961.00,0.0023
960.00,0.0022
959.00,0.0022
958.00,0.0022
957.00,0.0022
956.00,0.0022
955.00,0.0022
954.00,0.0022
953.00,0.0022
952.00,0.0022
951.00,0.0022
950.00,0.0023
949.00,0.0023
948.00,0.0023
947.00,0.0023
946.00,0.0024
945.00,0.0024
944.00,0.0024
943.00,0.0024
942.00,0.0024
941.00,0.0024
940.00,0.0024
939.00,0.0024
938.00,0.0024
937.00,0.0024
936.00,0.0024
935.00,0.0025
934.00,0.0025
933.00,0.0025
932.00,0.0025
931.00,0.0025
930.00,0.0025
929.00,0.0025
928.00,0.0025
927.00,0.0025
926.00,0.0026
925.00,0.0026
924.00,0.0027
923.00,0.0028
922.00,0.0028
921.00,0.0028
920.00,0.0028
919.00,0.0028
918.00,0.0028
917.00,0.0029
916.00,0.0030
915.00,0.0030
914.00,0.0029
913.00,0.0028
912.00,0.0028
911.00,0.0028
910.00,0.0029
909.00,0.0029
908.00,0.0029
907.00,0.0029
906.00,0.0030
905.00,0.0030
904.00,0.0031
903.00,0.0030
902.00,0.0029
901.00,0.0028
900.00,0.0028
899.00,0.0029
898.00,0.0030
897.00,0.0030
896.00,0.0029
895.00,0.0029
894.00,0.0029
893.00,0.0029
892.00,0.0028
891.00,0.0028
890.00,0.0028
889.00,0.0029
888.00,0.0029
887.00,0.0030
886.00,0.0030
885.00,0.0030
884.00,0.0029
883.00,0.0028
882.00,0.0027
881.00,0.0027
880.00,0.0028
879.00,0.0030
878.00,0.0030
877.00,0.0030
876.00,0.0030
875.00,0.0029
874.00,0.0029
873.00,0.0029
872.00,0.0031
871.00,0.0033
870.00,0.0033
869.00,0.0033
868.00,0.0031
867.00,0.0030
866.00,0.0028
865.00,0.0028
864.00,0.0028
863.00,0.0030
862.00,0.0031
861.00,0.0031
860.00,0.0031
859.00,0.0031
858.00,0.0031
857.00,0.0032
856.00,0.0032
855.00,0.0033
854.00,0.0033
853.00,0.0032
852.00,0.0031
851.00,0.0030
850.00,0.0029
849.00,0.0029
848.00,0.0028
847.00,0.0028
846.00,0.0027
845.00,0.0028
844.00,0.0028
843.00,0.0028
842.00,0.0028
841.00,0.0028
840.00,0.0029
839.00,0.0030
838.00,0.0031
837.00,0.0031
836.00,0.0029
835.00,0.0027
834.00,0.0025
833.00,0.0025
832.00,0.0027
831.00,0.0029
830.00,0.0031
829.00,0.0032
828.00,0.0032
827.00,0.0031
826.00,0.0031
825.00,0.0030
824.00,0.0030
823.00,0.0031
822.00,0.0032
821.00,0.0032
820.00,0.0032
819.00,0.0033
818.00,0.0032
817.00,0.0032
816.00,0.0032
815.00,0.0032
814.00,0.0032
813.00,0.0032
812.00,0.0031
811.00,0.0030
810.00,0.0028
809.00,0.0027
808.00,0.0027
807.00,0.0029
806.00,0.0031
805.00,0.0032
804.00,0.0032
803.00,0.0032
802.00,0.0033
801.00,0.0033
800.00,0.0032
799.00,0.0032
798.00,0.0032
797.00,0.0033
796.00,0.0034
795.00,0.0034
794.00,0.0034
793.00,0.0033
792.00,0.0033
791.00,0.0033
790.00,0.0034
789.00,0.0034
788.00,0.0034
787.00,0.0033
786.00,0.0032
785.00,0.0031
784.00,0.0031
783.00,0.0031
782.00,0.0033
781.00,0.0035
780.00,0.0037
779.00,0.0037
778.00,0.0037
777.00,0.0036
776.00,0.0035
775.00,0.0035
774.00,0.0036
773.00,0.0036
772.00,0.0036
771.00,0.0034
770.00,0.0033
769.00,0.0033
768.00,0.0033
767.00,0.0034
766.00,0.0035
765.00,0.0035
764.00,0.0035
763.00,0.0035
762.00,0.0034
761.00,0.0035
760.00,0.0037
759.00,0.0039
758.00,0.0040
757.00,0.0040
756.00,0.0039
755.00,0.0037
754.00,0.0034
753.00,0.0033
752.00,0.0032
751.00,0.0033
750.00,0.0034
749.00,0.0036
748.00,0.0037
747.00,0.0038
746.00,0.0038
745.00,0.0038
744.00,0.0037
743.00,0.0037
742.00,0.0037
741.00,0.0037
740.00,0.0036
739.00,0.0036
738.00,0.0036
737.00,0.0037
736.00,0.0038
735.00,0.0038
734.00,0.0037
733.00,0.0036
732.00,0.0036
731.00,0.0036
730.00,0.0038
729.00,0.0039
728.00,0.0041
727.00,0.0042
726.00,0.0042
725.00,0.0041
724.00,0.0039
723.00,0.0039
722.00,0.0039
721.00,0.0040
720.00,0.0041
719.00,0.0041
718.00,0.0041
717.00,0.0040
716.00,0.0039
715.00,0.0038
714.00,0.0037
713.00,0.0037
712.00,0.0036
711.00,0.0035
710.00,0.0035
709.00,0.0037
708.00,0.0039
707.00,0.0041
706.00,0.0042
705.00,0.0042
704.00,0.0042
703.00,0.0040
702.00,0.0039
701.00,0.0039
700.00,0.0038
699.00,0.0038
698.00,0.0038
697.00,0.0038
696.00,0.0040
695.00,0.0042
694.00,0.0044
693.00,0.0045
692.00,0.0045
691.00,0.0045
690.00,0.0044
689.00,0.0043
688.00,0.0042
687.00,0.0043
686.00,0.0046
685.00,0.0048
684.00,0.0049
683.00,0.0047
682.00,0.0045
681.00,0.0044
680.00,0.0044
679.00,0.0044
678.00,0.0042
677.00,0.0041
676.00,0.0040
675.00,0.0041
674.00,0.0043
673.00,0.0045
672.00,0.0048
671.00,0.0051
670.00,0.0055
669.00,0.0059
668.00,0.0059
667.00,0.0055
666.00,0.0050
665.00,0.0047
664.00,0.0045
663.00,0.0045
662.00,0.0044
661.00,0.0045
660.00,0.0047
659.00,0.0049
658.00,0.0051
657.00,0.0049
656.00,0.0046
655.00,0.0042
654.00,0.0041
653.00,0.0042
652.00,0.0044
651.00,0.0046
650.00,0.0046
